time (s)	coil I (A)	last det (V)	int current (uC)
4152.646374	0.499096	473.730469	-128.417969
4152.648376	0.843708	473.730469	-128.417969
4152.650377	0.938940	473.730469	-128.417969
4152.652377	0.935948	10.295428	0.105985
4153.630411	0.447152	123.925781	318.457031
4153.632414	0.802921	123.925781	318.457031
4153.634413	0.937954	123.925781	318.457031
4153.636415	0.934985	10.284838	0.104215
4154.735018	0.438168	475.976562	-128.417969
4154.739018	0.938819	475.976562	-128.417969
4154.741019	0.936097	475.976562	-128.417969
4154.743021	0.934170	10.275868	0.101367
4155.721644	0.622171	121.972656	314.062500
4155.723652	0.910678	121.972656	314.062500
4155.725660	0.936168	121.972656	314.062500
4155.727660	0.933711	10.270826	0.098680
4156.823734	0.531614	449.609375	-131.152344
4156.825737	0.865257	449.609375	-131.152344
4156.829736	0.934487	449.609375	-131.152344
4156.831742	0.932702	10.259722	0.096420
4157.807764	0.385231	122.753906	311.816406
4157.809766	0.747374	122.753906	311.816406
4157.811763	0.936504	122.753906	311.816406
4157.813763	0.935026	10.285280	0.099876
4158.913822	0.904624	475.976562	-129.589844
4158.915823	0.936211	475.976562	-129.589844
4158.917823	0.936106	10.297165	0.101131
4159.895834	0.644437	123.925781	310.644531
4159.897836	0.918301	123.925781	310.644531
4159.899836	0.936035	123.925781	310.644531
4159.901837	0.933703	10.270738	0.102825
4160.998373	0.496568	440.136719	-133.789062
4161.000374	0.841407	440.136719	-133.789062
4161.002376	0.937463	440.136719	-133.789062
4161.004375	0.934473	10.279201	0.106693
4161.986429	0.796139	120.703125	306.738281
4161.988430	0.937682	120.703125	306.738281
4161.990431	0.934791	10.282701	0.096811
4163.088513	0.910979	442.773437	-134.667969
4163.090514	0.935864	442.773437	-134.667969
4163.092515	0.933287	10.266156	0.103363
4164.075070	0.603593	124.707031	307.421875
4164.077070	0.903008	124.707031	307.421875
4164.079071	0.905674	124.707031	307.421875
4164.081069	0.933367	10.267042	0.098243
4165.173622	0.925032	442.089844	-135.546875
4165.175625	0.926760	442.089844	-135.546875
4165.177624	0.932750	10.260244	0.108036
4166.165669	0.577083	123.730469	303.906250
4166.167669	0.890971	123.730469	303.906250
4166.169669	0.936651	123.730469	303.906250
4166.171670	0.934014	10.274158	0.095547
4167.255687	0.524846	402.929687	-138.183594
4167.257689	0.860461	402.929687	-138.183594
4167.259689	0.936522	402.929687	-138.183594
4167.261690	0.933631	10.269939	0.107427
4168.257728	0.580392	128.613281	301.171875
4168.259730	0.892567	128.613281	301.171875
4168.261728	0.936335	128.613281	301.171875
4168.263729	0.933595	10.269550	0.094125
4169.337781	0.670673	418.847656	-136.816406
4169.339782	0.925768	418.847656	-136.816406
4169.341783	0.935900	418.847656	-136.816406
4169.343783	0.933539	10.268929	0.259958
4170.349785	0.584596	129.199219	294.140625
4170.351788	0.894488	129.199219	294.140625
4170.355785	0.933507	129.199219	294.140625
4170.357787	0.931967	10.251639	0.102812
4171.421868	0.670156	385.253906	-136.718750
4171.423871	0.925300	385.253906	-136.718750
4171.425870	0.935597	385.253906	-136.718750
4171.427871	0.933167	10.264835	0.262569
4172.441942	0.655765	130.175781	286.914062
4172.443945	0.921623	130.175781	286.914062
4172.445947	0.935744	130.175781	286.914062
4172.447946	0.933294	10.266235	0.195310
4173.510042	0.934731	413.085937	-132.910156
4173.512044	0.935403	413.085937	-132.910156
4173.514043	0.933223	10.265455	0.465350
4174.531016	0.808677	132.714844	279.882812
4174.533018	0.937375	132.714844	279.882812
4174.535019	0.934286	10.277144	0.098553
4175.597962	0.756202	420.312500	-129.785156
4175.599965	0.936765	420.312500	-129.785156
4175.601965	0.934982	10.284802	0.629218
4176.612897	0.507174	130.957031	273.144531
4176.614899	0.848672	130.957031	273.144531
4176.616898	0.936770	130.957031	273.144531
4176.618899	0.933760	10.271358	0.100137
4177.687443	0.529403	408.300781	-128.222656
4177.689445	0.863683	408.300781	-128.222656
4177.691447	0.936999	408.300781	-128.222656
4177.693446	0.934077	10.274850	0.098465
4178.697513	0.601889	130.175781	269.628906
4178.699515	0.902197	130.175781	269.628906
4178.701515	0.935860	130.175781	269.628906
4178.703516	0.933152	10.264675	0.098167
4179.782073	0.673376	410.644531	-129.101562
4179.784075	0.926399	410.644531	-129.101562
4179.786074	0.935801	410.644531	-129.101562
4179.788075	0.933342	10.266768	0.269544
4180.778093	0.475791	127.734375	270.312500
4180.780095	0.825944	127.734375	270.312500
4180.782096	0.938241	127.734375	270.312500
4180.784095	0.935258	10.287842	0.101364
4181.872149	0.597395	414.648437	-132.421875
4181.874148	0.607814	414.648437	-132.421875
4181.876149	0.936325	414.648437	-132.421875
4181.878148	0.933794	10.271730	0.097143
4182.862261	0.533649	127.050781	273.437500
4182.864264	0.866207	127.050781	273.437500
4182.866265	0.936462	127.050781	273.437500
4182.868264	0.933514	10.268655	0.100124
4183.962843	0.720094	393.750000	-138.085937
4183.964840	0.935217	393.750000	-138.085937
4183.968839	0.933691	393.750000	-138.085937
4183.970845	0.932369	10.256062	0.102529
4184.946907	0.402218	123.925781	275.976562
4184.948907	0.763294	123.925781	275.976562
4184.950908	0.938031	123.925781	275.976562
4184.952908	0.935856	10.294417	0.095990
4186.050953	0.710304	403.808594	-140.136719
4186.052954	0.933056	403.808594	-140.136719
4186.054953	0.935396	403.808594	-140.136719
4186.056955	0.933102	10.264117	0.103374
4187.034944	0.420658	124.218750	277.929687
4187.036944	0.779718	124.218750	277.929687
4187.038946	0.937015	124.218750	277.929687
4187.040945	0.934319	10.277509	0.092474
4188.136976	0.504681	391.308594	-143.261719
4188.138978	0.846988	391.308594	-143.261719
4188.140976	0.936972	391.308594	-143.261719
4188.142976	0.933903	10.272936	0.106308
4189.123031	0.631218	125.292969	279.296875
4189.125033	0.913656	125.292969	279.296875
4189.127033	0.935706	125.292969	279.296875
4189.129035	0.933233	10.265562	0.091783
4190.225987	0.885728	396.093750	-145.410156
4190.227987	0.936147	396.093750	-145.410156
4190.229988	0.933387	10.267255	0.106673
4191.212967	0.838907	120.996094	276.367187
4191.214970	0.937361	120.996094	276.367187
4191.216971	0.934424	10.278661	0.088507
4192.308997	0.408015	373.144531	-148.437500
4192.310999	0.768527	373.144531	-148.437500
4192.312999	0.937551	373.144531	-148.437500
4192.314997	0.935107	10.286176	0.110456
4193.300999	0.730669	122.753906	275.683594
4193.303000	0.934913	122.753906	275.683594
4193.305000	0.934528	10.279804	0.087375
4194.397011	0.700573	380.761719	-148.828125
4194.399013	0.931443	380.761719	-148.828125
4194.401013	0.935118	380.761719	-148.828125
4194.403013	0.932881	10.261689	0.108083
4195.388992	0.857956	121.972656	274.121094
4195.390994	0.936844	121.972656	274.121094
4195.392994	0.933968	10.273644	0.088536
4196.483049	0.451458	354.785156	-151.074219
4196.485052	0.806626	354.785156	-151.074219
4196.487053	0.939408	354.785156	-151.074219
4196.491049	0.934652	10.281168	0.109346
4197.477125	0.901461	124.707031	273.144531
4197.479128	0.935236	124.707031	273.144531
4197.481128	0.932576	10.258339	0.086575
4198.569661	0.345671	355.468750	-152.246094
4198.571662	0.710008	355.468750	-152.246094
4198.573663	0.933148	355.468750	-152.246094
4198.575664	0.935344	355.468750	-152.246094
4198.577664	0.933057	10.263630	0.106972
4199.563739	0.810161	121.093750	269.238281
4199.565741	0.937163	121.093750	269.238281
4199.567739	0.934043	10.274468	0.087336
4200.657806	0.527132	369.726562	-151.855469
4200.659808	0.861905	369.726562	-151.855469
4200.661808	0.936157	369.726562	-151.855469
4200.663808	0.933263	10.265890	0.106918
4201.647817	0.396178	122.265625	268.066406
4201.649818	0.757649	122.265625	268.066406
4201.651823	0.937583	122.265625	268.066406
4201.653821	0.935686	10.292548	0.089115
4202.747855	0.845256	351.464844	-152.929687
4202.749859	0.936481	351.464844	-152.929687
4202.751858	0.933398	10.267379	0.105122
4203.739920	0.933769	124.023437	266.308594
4203.741923	0.931781	10.249592	0.088454
4204.836489	0.866995	356.152344	-152.734375
4204.838489	0.870850	356.152344	-152.734375
4204.842488	0.931546	10.247005	0.103710
4205.821043	0.523599	124.023437	263.183594
4205.823045	0.859698	124.023437	263.183594
4205.825046	0.936569	124.023437	263.183594
4205.827046	0.933584	10.269425	0.087602
4206.921597	0.616723	370.117187	-150.585937
4206.923600	0.908325	370.117187	-150.585937
4206.925598	0.935961	370.117187	-150.585937
4206.927600	0.933388	10.267273	0.103102
4207.907616	0.508392	123.046875	258.886719
4207.909618	0.849776	123.046875	258.886719
4207.911619	0.936756	123.046875	258.886719
4207.913617	0.933815	10.271970	0.087916
4209.007671	0.419276	371.093750	-148.632812
4209.009672	0.778714	371.093750	-148.632812
4209.013671	0.936265	371.093750	-148.632812
4209.015672	0.934346	10.277801	0.105562
4209.996233	0.582445	124.121094	253.906250
4209.998235	0.893061	124.121094	253.906250
4210.000237	0.935605	124.121094	253.906250
4210.002238	0.932985	10.262833	0.088971
4211.094329	0.743263	342.285156	-147.363281
4211.096331	0.936459	342.285156	-147.363281
4211.098331	0.935317	10.288488	0.567975
4212.084329	0.380564	130.078125	250.195312
4212.086330	0.742766	130.078125	250.195312
4212.088330	0.936070	130.078125	250.195312
4212.090329	0.934905	10.283960	0.091281
4213.178355	1.342132	356.250000	-143.554687
4213.180355	0.808908	356.250000	-143.554687
4213.182357	0.939258	356.250000	-143.554687
4213.184357	0.936282	10.299097	0.098581
4214.174383	0.344749	128.808594	243.652344
4214.176385	0.708958	128.808594	243.652344
4214.178386	0.933105	128.808594	243.652344
4214.180385	0.935535	128.808594	243.652344
4214.182384	0.933334	10.266679	0.090483
4215.262441	0.727045	350.878906	-142.187500
4215.264438	0.934795	350.878906	-142.187500
4215.266439	0.934883	10.283711	0.499174
4216.264939	0.591414	128.027344	239.941406
4216.266942	0.897802	128.027344	239.941406
4216.268940	0.936427	128.027344	239.941406
4216.270941	0.933955	10.273502	0.090285
4217.347011	0.916275	339.648437	-143.261719
4217.349012	0.935835	339.648437	-143.261719
4217.351014	0.933311	10.266421	0.122792
4218.357601	0.565552	131.738281	239.453125
4218.359601	0.884502	131.738281	239.453125
4218.361601	0.936021	131.738281	239.453125
4218.363602	0.933239	10.265624	0.090752
4219.425624	0.472477	315.332031	-146.484375
4219.427626	0.823281	315.332031	-146.484375
4219.429627	0.938160	315.332031	-146.484375
4219.431626	0.935265	10.287912	0.104625
4220.447697	0.495035	133.789062	241.113281
4220.449701	0.840384	133.789062	241.113281
4220.451702	0.938214	133.789062	241.113281
4220.453700	0.935229	10.287523	0.087645
4221.513758	0.920203	314.062500	-151.855469
4221.515760	0.935146	314.062500	-151.855469
4221.517759	0.932647	10.259119	0.177135
4222.534311	0.486163	129.980469	243.066406
4222.538312	0.937211	129.980469	243.066406
4222.540315	0.934209	129.980469	243.066406
4222.542314	0.932346	10.255804	0.090489
4223.600363	0.918494	310.644531	-155.371094
4223.602365	0.935651	310.644531	-155.371094
4223.604365	0.933220	10.265420	0.152217
4224.621285	0.678528	132.128906	246.582031
4224.623286	0.926995	132.128906	246.582031
4224.625286	0.935083	132.128906	246.582031
4224.627287	0.932668	10.259350	0.284144
4225.689889	0.938050	273.632812	-159.667969
4225.691893	0.935009	273.632812	-159.667969
4225.693892	0.933235	10.265579	0.104850
4226.707977	0.930857	127.734375	247.363281
4226.709980	0.935593	127.734375	247.363281
4226.711981	0.933341	10.266749	0.343243
4227.774053	0.281542	304.003906	-161.425781
4227.778053	0.918951	304.003906	-161.425781
4227.782053	0.932658	304.003906	-161.425781
4227.784056	0.931314	10.244452	0.109209
4228.790090	0.606059	128.222656	248.437500
4228.792092	0.903626	128.222656	248.437500
4228.794093	0.935341	128.222656	248.437500
4228.796091	0.932718	10.259899	0.085500
4229.866129	0.664379	289.355469	-163.378906
4229.868130	0.923610	289.355469	-163.378906
4229.870130	0.935241	289.355469	-163.378906
4229.872133	0.932762	10.260386	0.237146
4230.874699	0.652117	129.003906	248.925781
4230.876701	0.919922	129.003906	248.925781
4230.880699	0.932455	129.003906	248.925781
4230.882701	0.931154	10.242698	0.153882
4231.955274	0.744222	297.656250	-164.453125
4231.957275	0.936564	297.656250	-164.453125
4231.959277	0.935324	10.288560	0.572687
4232.959331	0.610342	125.488281	247.265625
4232.961331	0.905745	125.488281	247.265625
4232.963330	0.935861	125.488281	247.265625
4232.965333	0.933329	10.266617	0.082808
4234.041418	0.467802	300.097656	-165.917969
4234.043421	0.820396	300.097656	-165.917969
4234.045420	0.942119	300.097656	-165.917969
4234.047422	0.938956	10.328511	0.106198
4235.044382	0.551980	129.003906	246.875000
4235.046383	0.877213	129.003906	246.875000
4235.048382	0.936478	129.003906	246.875000
4235.050383	0.933701	10.270711	0.082185
4236.128440	0.393369	300.000000	-166.503906
4236.130437	0.754887	300.000000	-166.503906
4236.134437	0.935552	300.000000	-166.503906
4236.136438	0.933535	10.268886	0.107407
4237.130460	0.352924	124.707031	245.117187
4237.132492	0.716712	124.707031	245.117187
4237.134493	0.934665	124.707031	245.117187
4237.136493	0.935436	10.289791	0.084512
4238.214559	0.437256	270.410156	-166.894531
4238.216561	0.794323	270.410156	-166.894531
4238.218561	0.937554	270.410156	-166.894531
4238.220561	0.934721	10.281931	0.108211
4239.218600	0.529286	124.804687	243.945312
4239.220601	0.863242	124.804687	243.945312
4239.222604	0.935998	124.804687	243.945312
4239.224601	0.933046	10.263506	0.084146
4240.302610	0.504786	283.007812	-167.871094
4240.304612	0.846960	283.007812	-167.871094
4240.306611	0.936696	283.007812	-167.871094
4240.308611	0.933679	10.270472	0.104435
4241.307195	0.785171	128.906250	243.750000
4241.309197	0.936402	128.906250	243.750000
4241.311197	0.933482	10.268301	0.082898
4242.387769	0.512468	267.480469	-167.578125
4242.389768	0.852239	267.480469	-167.578125
4242.391771	0.936651	267.480469	-167.578125
4242.393770	0.933603	10.269629	0.106361
4243.393847	0.465672	130.175781	241.894531
4243.395848	0.817942	130.175781	241.894531
4243.397847	0.938549	130.175781	241.894531
4243.399848	0.935606	10.291661	0.081344
4244.473873	0.819427	251.074219	-168.750000
4244.475876	0.936950	251.074219	-168.750000
4244.477876	0.933799	10.271791	0.105540
4245.485932	0.890028	132.128906	239.550781
4245.487934	0.935229	132.128906	239.550781
4245.489936	0.932537	10.257905	0.081229
4246.555986	0.517186	257.128906	-168.554687
4246.559984	0.935992	257.128906	-168.554687
4246.561986	0.932908	257.128906	-168.554687
4246.563987	0.931322	10.244540	0.104416
4247.574019	0.777251	127.539062	235.839844
4247.576025	0.936901	127.539062	235.839844
4247.578025	0.934275	10.277020	0.083653
4248.640072	0.515822	275.878906	-167.187500
4248.642074	0.854518	275.878906	-167.187500
4248.644074	0.936468	275.878906	-167.187500
4248.646073	0.933436	10.267796	0.102561
4249.663035	0.698614	132.226562	233.300781
4249.665038	0.930935	132.226562	233.300781
4249.667036	0.934883	132.226562	233.300781
4249.669037	0.932617	10.258782	0.083579
4250.725579	0.627896	254.003906	-165.625000
4250.729580	0.934999	254.003906	-165.625000
4250.731580	0.932500	254.003906	-165.625000
4250.733581	0.931059	10.241652	0.103162
4251.749609	0.544660	129.199219	227.246094
4251.751608	0.872512	129.199219	227.246094
4251.753611	0.935864	129.199219	227.246094
4251.755613	0.933065	10.263719	0.083827
4252.812067	0.554598	265.332031	-162.988281
4252.814066	0.878063	265.332031	-162.988281
4252.816068	0.935196	265.332031	-162.988281
4252.818067	0.932326	10.255583	0.101019
4253.836105	0.745655	133.593750	223.046875
4253.838107	0.936307	133.593750	223.046875
4253.840106	0.934917	10.284084	0.082185
4254.900646	0.803679	276.855469	-159.472656
4254.902647	0.937070	276.855469	-159.472656
4254.904648	0.934083	10.274912	0.102142
4255.921205	0.696779	131.640625	219.238281
4255.923209	0.930581	131.640625	219.238281
4255.925208	0.934874	131.640625	219.238281
4255.927215	0.932555	10.258100	0.084045
4256.989211	0.690813	290.722656	-157.421875
4256.991214	0.929811	290.722656	-157.421875
4256.993214	0.935418	290.722656	-157.421875
4256.995214	0.933168	10.264844	0.334776
4258.003225	0.364850	130.859375	216.601562
4258.005225	0.728058	130.859375	216.601562
4258.007225	0.934823	130.859375	216.601562
4258.009225	0.934744	10.282179	0.084199
4259.081334	0.910238	287.500000	-156.738281
4259.083338	0.935186	287.500000	-156.738281
4259.085336	0.932608	10.258685	0.096929
4260.085926	0.437723	132.617187	216.601562
4260.087930	0.794619	132.617187	216.601562
4260.089930	0.799649	132.617187	216.601562
4260.091929	0.935075	10.285821	0.083341
4261.168867	0.678513	267.968750	-158.105469
4261.170870	0.927463	267.968750	-158.105469
4261.172870	0.935718	267.968750	-158.105469
4261.174870	0.933368	10.267051	0.283950
4262.168936	0.378226	128.613281	218.066406
4262.170939	0.740670	128.613281	218.066406
4262.172940	0.936292	128.613281	218.066406
4262.174939	0.935254	10.287798	0.084288
4263.258971	0.860732	269.921875	-160.742187
4263.260975	0.936307	269.921875	-160.742187
4263.262978	0.933318	10.266501	0.097983
4264.253051	0.330956	128.515625	220.117187
4264.255053	0.695769	128.515625	220.117187
4264.257055	0.930627	128.515625	220.117187
4264.259053	0.935176	128.515625	220.117187
4264.261053	0.932908	10.261991	0.081748
4265.345086	0.320402	275.292969	-163.671875
4265.347090	0.685834	275.292969	-163.671875
4265.349090	0.928770	275.292969	-163.671875
4265.351088	0.935283	275.292969	-163.671875
4265.353088	0.932835	10.261184	0.099954
4266.339144	0.559683	125.292969	222.265625
4266.341146	0.881312	125.292969	222.265625
4266.343145	0.936159	125.292969	222.265625
4266.345148	0.933361	10.266971	0.079584
4267.435240	0.846640	291.308594	-165.820312
4267.437241	0.936263	291.308594	-165.820312
4267.439240	0.933229	10.265517	0.099621
4268.425791	0.512267	126.074219	223.925781
4268.427795	0.852104	126.074219	223.925781
4268.429794	0.936708	126.074219	223.925781
4268.431797	0.933660	10.270259	0.078254
4269.519900	0.364371	282.519531	-168.652344
4269.523904	0.934971	282.519531	-168.652344
4269.525906	0.935055	282.519531	-168.652344
4269.527906	0.932866	10.261530	0.102374
4270.511934	0.465827	127.929687	224.902344
4270.513936	0.818210	127.929687	224.902344
4270.515938	0.939444	127.929687	224.902344
4270.517936	0.936385	10.300232	0.077681
4271.606906	0.523089	287.597656	-170.410156
4271.608909	0.859179	287.597656	-170.410156
4271.610909	0.936051	287.597656	-170.410156
4271.612908	0.933099	10.264091	0.102628
4272.599846	0.643834	125.488281	224.707031
4272.601846	0.917616	125.488281	224.707031
4272.603845	0.935191	125.488281	224.707031
4272.605846	0.932625	10.258880	0.116862
4273.693882	0.534831	259.472656	-171.875000
4273.695883	0.866704	259.472656	-171.875000
4273.697885	0.936195	259.472656	-171.875000
4273.699884	0.933250	10.265748	0.097839
4274.689948	0.935450	122.363281	224.316406
4274.691949	0.933019	122.363281	224.316406
4274.693950	0.931590	10.247492	0.100217
4275.780024	0.534806	258.105469	-172.070312
4275.782026	0.866828	258.105469	-172.070312
4275.784026	0.936591	258.105469	-172.070312
4275.786027	0.933724	10.270959	0.100031
4276.772094	0.593179	123.144531	224.511719
4276.774095	0.899181	123.144531	224.511719
4276.776097	0.937357	123.144531	224.511719
4276.778095	0.934998	10.284979	0.075651
4277.868130	0.792371	267.382812	-172.460937
4277.870132	0.937235	267.382812	-172.460937
4277.872132	0.934246	10.276702	0.100912
4278.858162	0.393340	124.316406	224.121094
4278.860164	0.754910	124.316406	224.121094
4278.862164	0.937344	124.316406	224.121094
4278.864165	0.935569	10.291263	0.078452
4279.954235	0.739539	274.121094	-171.289062
4279.956232	0.936238	274.121094	-171.289062
4279.958236	0.935425	10.289676	0.551120
4280.944768	0.479316	123.828125	223.437500
4280.946770	0.828486	123.828125	223.437500
4280.948770	0.937800	123.828125	223.437500
4280.950771	0.934795	10.282746	0.078476
4282.038838	0.371246	259.179687	-170.800781
4282.042838	0.935802	259.179687	-170.800781
4282.044840	0.935340	259.179687	-170.800781
4282.046839	0.933211	10.265323	0.100536
4283.030931	0.388945	129.296875	222.167969
4283.032932	0.750809	129.296875	222.167969
4283.034932	0.939376	129.296875	222.167969
4283.036932	0.937900	10.316901	0.078444
4284.126973	0.732620	281.640625	-169.824219
4284.128973	0.934572	281.640625	-169.824219
4284.130973	0.934058	10.274637	0.100628
4285.121540	0.901414	126.171875	219.531250
4285.123542	0.935596	126.171875	219.531250
4285.125548	0.932941	10.262354	0.074968
4286.213586	0.808437	260.058594	-169.140625
4286.215589	0.936947	260.058594	-169.140625
4286.217588	0.933873	10.272598	0.099867
4287.207699	0.902960	127.246094	216.210937
4287.209701	0.935577	127.246094	216.210937
4287.211701	0.933012	10.263133	0.077384
4288.297759	0.598363	256.933594	-167.187500
4288.299762	0.900633	256.933594	-167.187500
4288.301761	0.935755	256.933594	-167.187500
4288.305760	0.931741	10.249149	0.100588
4289.293835	0.637578	127.343750	213.378906
4289.295836	0.915732	127.343750	213.378906
4289.297842	0.935569	127.343750	213.378906
4289.299838	0.933219	10.265411	0.085313
4290.381880	0.510449	281.054687	-164.941406
4290.385880	0.936486	281.054687	-164.941406
4290.387881	0.933390	281.054687	-164.941406
4290.389882	0.931692	10.248608	0.098150
4291.380823	0.470504	129.101562	210.351562
4291.382826	0.821684	129.101562	210.351562
4291.384826	0.938375	129.101562	210.351562
4291.386826	0.935308	10.288383	0.078341
4292.466900	0.722746	282.421875	-163.085937
4292.468903	0.934710	282.421875	-163.085937
4292.470903	0.935149	10.286636	0.100382
4293.470888	0.438438	129.492187	208.496094
4293.472890	0.795052	129.492187	208.496094
4293.474892	0.936861	129.492187	208.496094
4293.476892	0.933823	10.272058	0.079473
4294.548428	3.207577	267.578125	-162.109375
4294.555745	0.933832	267.578125	-162.109375
4294.557748	0.931837	10.250203	0.095146
4295.560315	0.568787	130.371094	207.031250
4295.562315	0.886298	130.371094	207.031250
4295.564314	0.936021	130.371094	207.031250
4295.568315	0.931801	10.249814	0.079326
4296.632392	0.373379	239.746094	-162.890625
4296.634394	0.736069	239.746094	-162.890625
4296.636393	0.937035	239.746094	-162.890625
4296.638394	0.936571	10.302279	0.100007
4297.650485	0.692132	129.687500	207.324219
4297.654487	0.935060	129.687500	207.324219
4297.656489	0.932923	129.687500	207.324219
4297.658490	0.931566	10.247226	0.332147
4298.718520	0.784475	259.179687	-165.527344
4298.720521	0.937480	259.179687	-165.527344
4298.722523	0.934706	10.281762	0.750537
4299.740570	0.934313	134.960937	208.789062
4299.742570	0.935001	134.960937	208.789062
4299.744571	0.932776	10.260537	0.079189
4300.803131	0.823641	218.066406	-168.359375
4300.805135	0.937239	218.066406	-168.359375
4300.807133	0.934144	10.275585	0.098531
4301.825209	0.489608	133.496094	211.718750
4301.827211	0.836221	133.496094	211.718750
4301.829213	0.937743	133.496094	211.718750
4301.831211	0.934729	10.282020	0.077714
4302.887279	0.429087	221.582031	-172.167969
4302.889280	0.787015	221.582031	-172.167969
4302.891280	0.937173	221.582031	-172.167969
4302.893280	0.934358	10.277933	0.098398
4303.911385	0.447948	134.570312	214.257812
4303.913387	0.803216	134.570312	214.257812
4303.917384	0.934565	134.570312	214.257812
4303.919385	0.932642	10.259066	0.078093
4304.973933	0.566787	233.496094	-175.292969
4304.975934	0.885123	233.496094	-175.292969
4304.977933	0.935960	233.496094	-175.292969
4304.979933	0.933210	10.265314	0.098654
4306.000480	0.888763	134.667969	216.796875
4306.002481	0.936614	134.667969	216.796875
4306.004483	0.933958	10.273538	0.075079
4307.064989	0.894195	214.648437	-176.171875
4307.066991	0.935772	214.648437	-176.171875
4307.068992	0.933069	10.263762	0.099485
4308.083010	0.698025	133.203125	218.652344
4308.085011	0.930394	133.203125	218.652344
4308.087012	0.934426	133.203125	218.652344
4308.089012	0.932094	10.253031	0.353305
4309.153102	0.936794	203.027344	-176.757812
4309.155103	0.933800	10.271801	0.803312
4310.165078	0.377044	132.226562	220.019531
4310.167079	0.739471	132.226562	220.019531
4310.169077	0.746148	132.226562	220.019531
4310.173077	0.932149	10.253642	0.080210
4311.237084	0.449592	207.519531	-177.832031
4311.239086	0.804482	207.519531	-177.832031
4311.241085	0.937015	207.519531	-177.832031
4311.243086	0.933932	10.273254	0.099542
4312.255138	0.760000	129.199219	220.507812
4312.257138	0.936232	129.199219	220.507812
4312.259139	0.934041	10.274450	0.074847
4313.325200	0.482548	203.613281	-178.320312
4313.329200	0.937525	203.613281	-178.320312
4313.331199	0.934590	203.613281	-178.320312
4313.333201	0.932722	10.259943	0.097663
4314.337267	0.542898	133.300781	220.214844
4314.339267	0.871447	133.300781	220.214844
4314.341267	0.935956	133.300781	220.214844
4314.343267	0.932982	10.262797	0.076888
4315.411858	0.524518	229.785156	-179.785156
4315.413861	0.860169	229.785156	-179.785156
4315.415861	0.936517	229.785156	-179.785156
4315.419859	0.931873	10.250603	0.102810
4316.424378	0.579925	130.468750	220.214844
4316.426382	0.892135	130.468750	220.214844
4316.428380	0.936421	130.468750	220.214844
4316.430380	0.933695	10.270640	0.077011
4317.498440	0.651200	212.890625	-180.273437
4317.500441	0.919636	212.890625	-180.273437
4317.502441	0.935032	212.890625	-180.273437
4317.504442	0.932582	10.258401	0.179781
4318.510508	0.622935	134.277344	218.066406
4318.512509	0.910043	134.277344	218.066406
4318.514510	0.934823	134.277344	218.066406
4318.516509	0.932260	10.254856	0.075728
4319.584557	0.599630	219.042969	-181.054687
4319.586561	0.900907	219.042969	-181.054687
4319.588560	0.935265	219.042969	-181.054687
4319.590562	0.932677	10.259447	0.096778
4320.599102	0.650217	130.761719	217.187500
4320.601104	0.919239	130.761719	217.187500
4320.603103	0.934642	130.761719	217.187500
4320.605104	0.932202	10.254218	0.155758
4321.671649	0.875697	221.679687	-182.128906
4321.673652	0.936170	221.679687	-182.128906
4321.675653	0.933311	10.266421	0.101939
4322.686244	0.689547	130.175781	215.820312
4322.688244	0.929033	130.175781	215.820312
4322.690244	0.934663	130.175781	215.820312
4322.692243	0.932385	10.256230	0.308890
4323.756328	0.853313	227.832031	-181.738281
4323.758330	0.935949	227.832031	-181.738281
4323.760329	0.932872	10.261592	0.099722
4324.772380	0.364214	133.496094	214.160156
4324.774384	0.727239	133.496094	214.160156
4324.776382	0.935021	133.496094	214.160156
4324.778382	0.935017	10.285183	0.077994
4325.840412	0.643073	204.882812	-179.394531
4325.842411	0.916793	204.882812	-179.394531
4325.844412	0.934412	204.882812	-179.394531
4325.846413	0.931922	10.251143	0.143368
4326.864449	0.922167	131.738281	212.402344
4326.866451	0.934956	131.738281	212.402344
4326.868450	0.932508	10.257586	0.186823
4327.927049	0.687224	220.410156	-178.613281
4327.929050	0.929270	220.410156	-178.613281
4327.933049	0.933346	220.410156	-178.613281
4327.935050	0.931966	10.251631	0.096815
4328.947625	0.342339	131.445312	210.253906
4328.949626	0.706672	131.445312	210.253906
4328.951626	0.932427	131.445312	210.253906
4328.953626	0.935136	131.445312	210.253906
4328.955624	0.932882	10.261706	0.078125
4330.009648	0.554489	221.972656	-175.878906
4330.011651	0.568372	221.972656	-175.878906
4330.013651	0.935549	221.972656	-175.878906
4330.015651	0.932794	10.260732	0.101094
4331.034175	0.371581	134.863281	206.933594
4331.036177	0.734289	134.863281	206.933594
4331.038177	0.935946	134.863281	206.933594
4331.040178	0.935370	10.289065	0.075512
4332.096155	0.483336	208.886719	-171.972656
4332.098157	0.831487	208.886719	-171.972656
4332.100157	0.937469	208.886719	-171.972656
4332.102158	0.934455	10.279006	0.096993
4333.122219	0.467965	135.058594	204.589844
4333.124222	0.924794	135.058594	204.589844
4333.126221	0.934669	135.058594	204.589844
4333.128221	0.932295	10.255246	0.075008
4334.184266	0.421503	217.285156	-168.457031
4334.186269	0.780336	217.285156	-168.457031
4334.188269	0.937237	217.285156	-168.457031
4334.190268	0.934561	10.280176	0.096920
4335.206293	0.867510	133.984375	202.441406
4335.208293	0.936336	133.984375	202.441406
4335.210294	0.933454	10.267999	0.074870
4336.274863	0.804318	252.441406	-167.089844
4336.276865	0.936922	252.441406	-167.089844
4336.280864	0.931966	10.251621	0.097090
4337.292863	0.936028	134.570312	200.781250
4337.294864	0.933331	134.570312	200.781250
4337.296864	0.931778	10.249557	0.074081
4338.365836	0.937994	242.480469	-165.039062
4338.367838	0.935001	242.480469	-165.039062
4338.369837	0.933134	10.264472	0.095318
4339.372395	0.518986	128.320312	201.367187
4339.374396	0.856488	128.320312	201.367187
4339.376396	0.936339	128.320312	201.367187
4339.378397	0.933451	10.267963	0.073415
4340.454456	0.936634	251.269531	-165.039062
4340.456458	0.935154	251.269531	-165.039062
4340.458460	0.933022	10.263240	0.590207
4341.455499	0.386030	132.226562	201.855469
4341.457499	0.748012	132.226562	201.855469
4341.459499	0.937093	132.226562	201.855469
4341.461500	0.935667	10.292335	0.072902
4342.540512	0.679214	259.863281	-166.113281
4342.542515	0.926970	259.863281	-166.113281
4342.544512	0.934780	259.863281	-166.113281
4342.546514	0.932318	10.255494	0.286663
4343.544507	0.927346	131.835937	203.222656
4343.548508	0.932013	131.835937	203.222656
4343.550509	0.931987	10.251861	0.073761
4344.627119	0.533089	237.695312	-166.308594
4344.629120	0.865704	237.695312	-166.308594
4344.631119	0.936415	237.695312	-166.308594
4344.633119	0.933554	10.269090	0.094535
4345.629176	0.877733	130.566406	206.347656
4345.631177	0.935563	130.566406	206.347656
4345.633177	0.932700	10.259695	0.071703
4346.715254	0.567668	268.164062	-167.675781
4346.717258	0.885531	268.164062	-167.675781
4346.719257	0.935726	268.164062	-167.675781
4346.721257	0.932863	10.261495	0.093023
4347.711307	0.421031	131.054687	208.398437
4347.713309	0.780003	131.054687	208.398437
4347.715314	0.938047	131.054687	208.398437
4347.717312	0.935419	10.289605	0.075407
4348.801904	0.429098	247.851562	-167.871094
4348.803905	0.787163	247.851562	-167.871094
4348.805905	0.938431	247.851562	-167.871094
4348.807907	0.935621	10.291830	0.094561
4349.799958	0.962470	126.464844	210.058594
4349.803957	0.933035	126.464844	210.058594
4349.805958	0.931574	10.247314	0.071433
4350.890065	0.746300	235.253906	-168.457031
4350.892068	0.936097	235.253906	-168.457031
4350.894069	0.934614	10.280752	0.095027
4351.884082	0.603784	127.929687	209.570312
4351.886082	0.902892	127.929687	209.570312
4351.888084	0.935679	127.929687	209.570312
4351.890085	0.933062	10.263683	0.070246
4352.978131	0.928390	236.230469	-169.921875
4352.980133	0.934977	236.230469	-169.921875
4352.982135	0.932717	10.259890	0.310579
4353.970197	0.644175	129.785156	210.742187
4353.972198	0.917766	129.785156	210.742187
4353.974198	0.935384	129.785156	210.742187
4353.976197	0.932866	10.261530	0.124902
4355.062758	0.543785	264.062500	-170.703125
4355.064760	0.872060	264.062500	-170.703125
4355.066760	0.935897	264.062500	-170.703125
4355.068759	0.932949	10.262434	0.093719
4356.055694	0.385634	126.562500	209.765625
4356.057695	0.747606	126.562500	209.765625
4356.061693	0.934452	126.562500	209.765625
4356.065694	0.931157	10.242723	0.072486
4357.149804	0.660137	235.449219	-170.312500
4357.151805	0.922329	235.449219	-170.312500
4357.153808	0.935194	235.449219	-170.312500
4357.155805	0.932779	10.260564	0.094920
4358.143886	0.713391	124.707031	209.863281
4358.147887	0.937049	124.707031	209.863281
4358.149889	0.935157	124.707031	209.863281
4358.151889	0.933727	10.270994	0.072519
4359.235965	0.797105	259.472656	-170.410156
4359.237967	0.937269	259.472656	-170.410156
4359.239968	0.934307	10.277375	0.095418
4360.228478	0.289140	129.101562	208.984375
4360.230478	0.656040	129.101562	208.984375
4360.232479	0.921037	129.101562	208.984375
4360.234480	0.934959	129.101562	208.984375
4360.236480	0.932449	10.256939	0.071968
4361.321018	0.647208	250.000000	-168.847656
4361.323020	0.918335	250.000000	-168.847656
4361.325020	0.920100	250.000000	-168.847656
4361.327018	0.932540	10.257940	0.158454
4362.315056	0.415196	126.855469	208.691406
4362.317060	0.774625	126.855469	208.691406
4362.319058	0.783275	126.855469	208.691406
4362.321059	0.933929	10.273219	0.074702
4363.405532	0.400236	251.757812	-167.675781
4363.407534	0.761049	251.757812	-167.675781
4363.409533	0.936595	251.757812	-167.675781
4363.411534	0.934606	10.280663	0.095921
4364.403578	0.429716	127.929687	206.640625
4364.405581	0.787664	127.929687	206.640625
4364.407580	0.937772	127.929687	206.640625
4364.409581	0.934924	10.284164	0.072091
4365.491659	0.536348	256.347656	-166.601562
4365.493661	0.867377	256.347656	-166.601562
4365.495659	0.935757	256.347656	-166.601562
4365.497662	0.932902	10.261920	0.094081
4366.492204	0.646632	129.589844	204.589844
4366.494207	0.918182	129.589844	204.589844
4366.496206	0.934835	129.589844	204.589844
4366.500204	0.931052	10.241571	0.072596
4367.576731	0.386286	235.546875	-164.257812
4367.578733	0.748175	235.546875	-164.257812
4367.580737	0.936546	235.546875	-164.257812
4367.582739	0.935076	10.285839	0.093712
4368.578847	0.412917	130.859375	203.222656
4368.580849	0.772636	130.859375	203.222656
4368.582850	0.937551	130.859375	203.222656
4368.584848	0.935053	10.285582	0.071438
4369.661398	0.723518	257.519531	-164.453125
4369.663400	0.934064	257.519531	-164.453125
4369.665401	0.934401	10.278412	0.096596
4370.669961	0.910878	126.171875	203.125000
4370.671961	0.935062	126.171875	203.125000
4370.673963	0.932586	10.258446	0.071842
4371.748036	0.896483	247.265625	-163.671875
4371.752036	0.932955	247.265625	-163.671875
4371.754037	0.931444	10.245888	0.092546
4372.756619	0.754313	127.929687	202.636719
4372.758619	0.935879	127.929687	202.636719
4372.760621	0.933948	10.273432	0.073931
4373.830674	0.879773	253.417969	-164.355469
4373.832673	0.935597	253.417969	-164.355469
4373.834673	0.932730	10.260033	0.094808
4374.844671	0.589803	134.570312	202.246094
4374.846673	0.896302	134.570312	202.246094
4374.848673	0.935088	134.570312	202.246094
4374.850675	0.932447	10.256912	0.074812
4375.912700	0.406112	229.785156	-164.453125
4375.914702	0.766510	229.785156	-164.453125
4375.916702	0.937300	229.785156	-164.453125
4375.920699	0.932992	10.262913	0.094875
4376.932741	0.431609	132.421875	204.492187
4376.934745	0.789166	132.421875	204.492187
4376.938743	0.934564	132.421875	204.492187
4376.940744	0.932629	10.258924	0.074740
4377.998761	0.622062	217.187500	-166.308594
4378.000764	0.909997	217.187500	-166.308594
4378.002763	0.935336	217.187500	-166.308594
4378.004764	0.932770	10.260475	0.095982
4379.020811	0.641053	132.714844	207.128906
4379.022814	0.916302	132.714844	207.128906
4379.024814	0.934708	132.714844	207.128906
4379.026813	0.932244	10.254679	0.103963
4380.083412	0.492385	228.027344	-170.019531
4380.085412	0.837905	228.027344	-170.019531
4380.087413	0.936760	228.027344	-170.019531
4380.089412	0.933645	10.270090	0.098279
4381.105962	0.414905	129.980469	210.058594
4381.107961	0.774769	129.980469	210.058594
4381.109961	0.941243	129.980469	210.058594
4381.111962	0.938592	10.324514	0.075117
4382.171976	0.906087	223.828125	-172.851562
4382.173976	0.935059	223.828125	-172.851562
4382.175978	0.932476	10.257240	0.093768
4383.192525	0.349839	129.492187	212.597656
4383.194533	0.713648	129.492187	212.597656
4383.196533	0.934745	129.492187	212.597656
4383.198535	0.936493	129.492187	212.597656
4383.202532	0.933042	10.263462	0.075850
4384.254566	0.281442	201.562500	-173.828125
4384.256567	0.648781	201.562500	-173.828125
4384.258568	0.918929	201.562500	-173.828125
4384.262567	0.932465	201.562500	-173.828125
4384.264567	0.931085	10.241935	0.096729
4385.278566	0.378342	130.664062	213.867187
4385.280566	0.740777	130.664062	213.867187
4385.284566	0.934489	130.664062	213.867187
4385.288566	0.931129	10.242423	0.073634
4386.344642	0.765802	201.171875	-175.488281
4386.346646	0.936754	201.171875	-175.488281
4386.348643	0.934442	10.278865	0.096221
4387.364717	0.428120	129.687500	215.136719
4387.366717	0.786109	129.687500	215.136719
4387.368719	0.937208	129.687500	215.136719
4387.370718	0.934393	10.278323	0.072343
4388.430801	0.536427	226.269531	-178.320312
4388.432802	0.867505	226.269531	-178.320312
4388.434802	0.935721	226.269531	-178.320312
4388.438801	0.931302	10.244319	0.096616
4389.450871	0.661694	127.148437	216.894531
4389.452873	0.922591	127.148437	216.894531
4389.454873	0.934926	127.148437	216.894531
4389.456873	0.932455	10.257010	0.073715
4390.520928	0.889045	186.132812	-176.562500
4390.522934	0.936626	186.132812	-176.562500
4390.524938	0.934026	10.274291	0.091919
4391.535005	0.437900	127.343750	217.187500
4391.537009	0.794663	127.343750	217.187500
4391.539010	0.937781	127.343750	217.187500
4391.541016	0.934827	10.283100	0.074068
4392.605023	0.516760	225.195312	-179.394531
4392.609024	0.935962	225.195312	-179.394531
4392.611024	0.932869	225.195312	-179.394531
4392.613025	0.931241	10.243654	0.095049
4393.623064	0.735232	127.929687	217.675781
4393.627064	0.934556	127.929687	217.675781
4393.629066	0.932377	10.256150	0.072694
4394.691083	0.457959	202.441406	-177.734375
4394.693085	0.811417	202.441406	-177.734375
4394.697082	0.934333	202.441406	-177.734375
4394.699084	0.932393	10.256328	0.095270
4395.707096	0.400619	127.636719	217.675781
4395.709097	0.761531	127.636719	217.675781
4395.711097	0.937924	127.636719	217.675781
4395.713097	0.935927	10.295197	0.071951
4396.777097	0.386864	199.511719	-177.148437
4396.779099	0.748742	199.511719	-177.148437
4396.781099	0.935766	199.511719	-177.148437
4396.783100	0.934035	10.274389	0.095015
4397.795151	0.607422	127.246094	218.457031
4397.797151	0.904313	127.246094	218.457031
4397.799151	0.935518	127.246094	218.457031
4397.801151	0.932909	10.261999	0.072652
4398.863205	0.519814	192.675781	-175.976562
4398.865204	0.856928	192.675781	-175.976562
4398.867208	0.936518	192.675781	-175.976562
4398.869206	0.933552	10.269072	0.092295
4399.881274	0.371966	127.636719	218.457031
4399.883277	0.734636	127.636719	218.457031
4399.885276	0.935257	127.636719	218.457031
4399.889274	0.932565	10.258215	0.074043
4400.949276	0.553910	220.996094	-176.953125
4400.951279	0.877561	220.996094	-176.953125
4400.953281	0.935095	220.996094	-176.953125
4400.955278	0.932171	10.253881	0.091862
4401.971297	0.888087	126.953125	219.140625
4401.973296	0.935687	126.953125	219.140625
4401.975300	0.932989	10.262877	0.071554
4403.035388	0.685050	214.648437	-174.121094
4403.037391	0.928032	214.648437	-174.121094
4403.041389	0.932238	214.648437	-174.121094
4403.043389	0.931009	10.241102	0.304479
4404.057917	0.697840	133.105469	217.382812
4404.059920	0.931144	133.105469	217.382812
4404.061918	0.935395	133.105469	217.382812
4404.063918	0.933113	10.264241	0.344087
4405.122915	0.908740	205.175781	-171.093750
4405.124919	0.935076	205.175781	-171.093750
4405.126918	0.932588	10.258472	0.092570
4406.144952	0.531968	132.617187	216.992187
4406.146955	0.864799	132.617187	216.992187
4406.148954	0.936095	132.617187	216.992187
4406.150954	0.933096	10.264055	0.073148
4407.207549	0.832902	225.488281	-170.605469
4407.209550	0.937055	225.488281	-170.605469
4407.211550	0.934105	10.275151	0.093315
4408.232092	0.757663	129.003906	215.527344
4408.234093	0.936194	129.003906	215.527344
4408.236092	0.934061	10.274673	0.074175
4409.292117	0.516177	224.804687	-168.457031
4409.294123	0.854407	224.804687	-168.457031
4409.296127	0.935979	224.804687	-168.457031
4409.298125	0.932974	10.262717	0.092301
4410.316689	0.526461	134.570312	211.621094
4410.318692	0.861250	134.570312	211.621094
4410.320691	0.936041	134.570312	211.621094
4410.322690	0.933040	10.263435	0.070733
4411.379689	2.076629	227.246094	-165.722656
4411.381686	0.934578	227.246094	-165.722656
4411.383686	0.934817	10.282986	0.483026
4412.404294	0.885400	128.027344	211.914062
4412.406297	0.935921	128.027344	211.914062
4412.408296	0.933213	10.265341	0.070747
4413.466361	0.591124	235.644531	-162.890625
4413.468363	0.896993	235.644531	-162.890625
4413.470364	0.935204	235.644531	-162.890625
4413.472365	0.932565	10.258215	0.093072
4414.488903	0.698814	133.691406	208.398437
4414.490905	0.930518	133.691406	208.398437
4414.492904	0.934260	133.691406	208.398437
4414.494903	0.932051	10.252561	0.349659
4415.553824	0.596620	222.460937	-160.351562
4415.555824	0.899603	222.460937	-160.351562
4415.557825	0.935539	222.460937	-160.351562
4415.559824	0.932977	10.262753	0.093063
4416.573897	0.719755	131.445312	206.347656
4416.575895	0.934161	131.445312	206.347656
4416.577896	0.934789	131.445312	206.347656
4416.579896	0.932530	10.257825	0.070428
4417.642483	0.729402	257.128906	-160.742187
4417.644482	0.934968	257.128906	-160.742187
4417.646481	0.934821	10.283030	0.092944
4418.657460	0.671635	129.296875	206.445312
4418.659463	0.925064	129.296875	206.445312
4418.663460	0.932293	129.296875	206.445312
4418.665461	0.931047	10.241519	0.231622
4419.729487	0.469706	259.277344	-160.058594
4419.731489	0.483992	259.277344	-160.058594
4419.733489	0.938503	259.277344	-160.058594
4419.735490	0.935531	10.290837	0.092574
4420.740447	0.426409	127.441406	207.128906
4420.742449	0.784770	127.441406	207.128906
4420.744448	0.938156	127.441406	207.128906
4420.748448	0.933502	10.268522	0.072032
4421.818477	0.566828	239.355469	-158.007812
4421.820479	0.581453	239.355469	-158.007812
4421.822480	0.935242	239.355469	-158.007812
4421.824480	0.932434	10.256780	0.092266
4422.828551	0.919111	124.609375	208.593750
4422.830553	0.935447	124.609375	208.593750
4422.832553	0.932978	10.262762	0.138729
4423.908618	0.902099	258.691406	-159.179687
4423.910619	0.935092	258.691406	-159.179687
4423.912619	0.932451	10.256956	0.090129
4424.915130	0.936124	130.468750	208.007812
4424.917132	0.932967	130.468750	208.007812
4424.919132	0.931315	10.244461	0.069229
4425.992076	0.432398	252.441406	-159.277344
4425.998075	0.934509	252.441406	-159.277344
4426.000077	0.932517	252.441406	-159.277344
4426.002077	0.931397	10.245364	0.093515
4426.996148	0.439675	127.343750	210.449219
4427.000148	0.937745	127.343750	210.449219
4427.002150	0.935011	127.343750	210.449219
4427.004150	0.932998	10.262983	0.069928
4428.080200	0.369899	249.023437	-158.496094
4428.082199	0.732606	249.023437	-158.496094
4428.084201	0.935838	249.023437	-158.496094
4428.086200	0.935606	10.291661	0.092773
4429.082255	0.572784	129.589844	209.667969
4429.084257	0.888161	129.589844	209.667969
4429.086258	0.935525	129.589844	209.667969
4429.088258	0.932734	10.260077	0.069080
4430.166274	0.308856	251.171875	-159.472656
4430.168275	0.674706	251.171875	-159.472656
4430.170277	0.925959	251.171875	-159.472656
4430.172274	0.934896	251.171875	-159.472656
4430.174276	0.932613	10.258747	0.093329
4431.168322	0.602493	124.023437	212.304687
4431.170324	0.902136	124.023437	212.304687
4431.172324	0.935444	124.023437	212.304687
4431.174324	0.932876	10.261636	0.068948
4432.254379	0.623838	274.121094	-160.449219
4432.258380	0.935221	274.121094	-160.449219
4432.260381	0.932645	274.121094	-160.449219
4432.262381	0.932560	10.258162	0.094100
4433.255371	0.716309	129.394531	211.230469
4433.257374	0.933638	129.394531	211.230469
4433.259375	0.934071	129.394531	211.230469
4433.261373	0.931948	10.251427	0.070058
4434.340326	0.450118	247.070312	-159.179687
4434.342330	0.805505	247.070312	-159.179687
4434.344328	0.941527	247.070312	-159.179687
4434.348329	0.936774	10.304512	0.095453
4435.340383	0.563901	123.535156	212.792969
4435.342385	0.577530	123.535156	212.792969
4435.344384	0.935910	123.535156	212.792969
4435.346386	0.933143	10.264569	0.070079
4436.428446	0.758214	262.304687	-160.156250
4436.432446	0.933272	262.304687	-160.156250
4436.434447	0.931357	10.244930	0.623193
4437.427003	1.267347	126.562500	211.816406
4437.429004	0.851742	126.562500	211.816406
4437.431004	0.935938	126.562500	211.816406
4437.433005	0.932757	10.260324	0.069448
4438.513037	0.526232	257.910156	-159.375000
4438.515038	0.860999	257.910156	-159.375000
4438.517039	0.935816	257.910156	-159.375000
4438.519038	0.932884	10.261724	0.092412
4439.517095	0.934760	126.562500	211.718750
4439.519098	0.935175	126.562500	211.718750
4439.521096	0.933017	10.263187	0.456643
4440.599663	0.752540	266.601562	-158.789062
4440.601666	0.936281	266.601562	-158.789062
4440.603665	0.934393	10.278323	0.093917
4441.602243	0.766267	123.046875	212.402344
4441.604244	0.937420	123.046875	212.402344
4441.606243	0.935092	10.286016	0.650852
4442.686287	0.860473	265.527344	-157.128906
4442.688289	0.936440	265.527344	-157.128906
4442.690291	0.933484	10.268327	0.092726
4443.688836	0.525118	128.613281	211.328125
4443.692837	0.936283	128.613281	211.328125
4443.694840	0.933281	128.613281	211.328125
4443.698836	0.930668	10.237345	0.071577
4444.769400	0.568202	244.726562	-154.785156
4444.771401	0.885498	244.726562	-154.785156
4444.773401	0.935150	244.726562	-154.785156
4444.775401	0.932355	10.255902	0.092955
4445.777456	0.741094	129.882812	211.621094
4445.779460	0.935790	129.882812	211.621094
4445.781460	0.934623	10.280858	0.542695
4446.854464	0.514274	253.906250	-155.175781
4446.856466	0.853168	253.906250	-155.175781
4446.858468	0.936286	253.906250	-155.175781
4446.860464	0.936155	10.297706	0.090584
4447.868532	0.936687	129.687500	210.644531
4447.870535	0.933603	10.269629	0.068671
4448.937127	0.389778	244.531250	-155.273437
4448.939128	0.404886	244.531250	-155.273437
4448.941137	0.936307	244.531250	-155.273437
4448.943134	0.934588	10.280468	0.092246
4449.953147	0.795821	126.953125	211.523437
4449.955148	0.937580	126.953125	211.523437
4449.957150	0.934636	10.281000	0.070704
4451.023238	0.524888	240.527344	-155.175781
4451.025239	0.860262	240.527344	-155.175781
4451.029237	0.932892	240.527344	-155.175781
4451.031239	0.931221	10.243433	0.092483
4452.041301	0.562384	128.710937	212.207031
4452.043305	0.882369	128.710937	212.207031
4452.045305	0.935206	128.710937	212.207031
4452.047305	0.932446	10.256904	0.070404
