time (s)	coil I (A)	last det (V)	int current (uC)
3788.479077	0.924871	479.980469	-130.078125
3788.481079	0.936241	479.980469	-130.078125
3788.483081	0.934045	10.274495	0.246229
3789.485131	0.326383	147.753906	266.015625
3789.487133	0.691966	147.753906	266.015625
3789.489133	0.930724	147.753906	266.015625
3789.491133	0.936073	147.753906	266.015625
3789.493133	0.933840	10.272235	0.134864
3790.563181	0.473081	477.246094	-134.082031
3790.565180	0.824311	477.246094	-134.082031
3790.567182	0.939175	477.246094	-134.082031
3790.569182	0.936145	10.297599	0.114013
3791.577764	0.439123	145.507812	266.406250
3791.579767	0.796232	145.507812	266.406250
3791.581766	0.938839	145.507812	266.406250
3791.583767	0.935913	10.295038	0.125888
3792.649783	0.603693	449.121094	-141.894531
3792.651785	0.903604	449.121094	-141.894531
3792.653784	0.936829	449.121094	-141.894531
3792.655784	0.934449	10.278935	0.123737
3793.667822	0.452017	144.042969	266.015625
3793.669822	0.807337	144.042969	266.015625
3793.671824	0.939792	144.042969	266.015625
3793.673821	0.936692	10.303608	0.129154
3794.737869	0.536452	438.867187	-144.726562
3794.739870	0.868299	438.867187	-144.726562
3794.741871	0.937093	438.867187	-144.726562
3794.743872	0.934379	10.278172	0.122218
3795.753890	1.896990	143.554687	265.039062
3795.755890	0.706117	143.554687	265.039062
3795.757890	0.932829	143.554687	265.039062
3795.759890	0.935687	143.554687	265.039062
3795.761890	0.933428	10.267707	0.129877
3796.825942	0.376691	436.328125	-145.214844
3796.827945	0.739689	436.328125	-145.214844
3796.829943	0.936568	436.328125	-145.214844
3796.831943	0.935635	10.291981	0.123711
3797.843956	0.403652	145.996094	263.671875
3797.845957	0.764769	145.996094	263.671875
3797.847958	0.938170	145.996094	263.671875
3797.849959	0.935898	10.294879	0.130371
3798.918528	0.662846	429.199219	-145.312500
3798.920529	0.924201	429.199219	-145.312500
3798.922529	0.936682	429.199219	-145.312500
3798.924531	0.934441	10.278855	0.233418
3799.934564	0.610477	143.554687	257.519531
3799.936565	0.906470	143.554687	257.519531
3799.938565	0.936752	143.554687	257.519531
3799.940566	0.934274	10.277012	0.125476
3801.006631	0.856305	421.582031	-145.117187
3801.008633	0.937603	421.582031	-145.117187
3801.010633	0.934709	10.281797	0.117598
3802.022695	0.555654	143.945312	252.148437
3802.024696	0.879827	143.945312	252.148437
3802.026696	0.937336	143.945312	252.148437
3802.028696	0.934672	10.281390	0.125113
3803.094724	0.397480	427.734375	-142.773437
3803.096725	0.759077	427.734375	-142.773437
3803.098727	0.938121	427.734375	-142.773437
3803.100726	0.936155	10.297706	0.119659
3804.108781	0.635692	142.773437	246.386719
3804.110784	0.916075	142.773437	246.386719
3804.112783	0.936875	142.773437	246.386719
3804.114783	0.934441	10.278847	0.127780
3805.192877	0.934754	426.855469	-141.406250
3805.194879	0.935042	426.855469	-141.406250
3805.196878	0.932824	10.261068	0.472038
3806.188933	0.479876	141.894531	246.679687
3806.190934	0.829340	141.894531	246.679687
3806.192935	0.938441	141.894531	246.679687
3806.194936	0.935448	10.289925	0.135118
3807.286989	0.876353	425.000000	-144.921875
3807.288991	0.938293	425.000000	-144.921875
3807.290993	0.935720	10.292919	0.113370
3808.271025	0.346316	138.769531	252.246094
3808.273026	0.413626	138.769531	252.246094
3808.275026	0.933709	138.769531	252.246094
3808.277027	0.935860	138.769531	252.246094
3808.279025	0.933645	10.270100	0.128780
3809.383075	0.937110	435.546875	-150.585937
3809.385077	0.934696	10.281656	0.110712
3810.359622	0.937192	139.257812	261.621094
3810.361622	0.934256	139.257812	261.621094
3810.363624	0.932604	10.258640	0.117539
3811.462558	0.623568	407.128906	-158.300781
3811.464561	0.911681	407.128906	-158.300781
3811.466559	0.936929	407.128906	-158.300781
3811.468561	0.934433	10.278767	0.123923
3812.452622	0.736288	139.550781	261.621094
3812.454623	0.935928	139.550781	261.621094
3812.456624	0.935369	10.289056	0.119144
3813.545163	0.584891	379.003906	-160.839844
3813.547165	0.894836	379.003906	-160.839844
3813.549164	0.936506	379.003906	-160.839844
3813.551164	0.933951	10.273458	0.125327
3814.553202	0.708429	144.335937	253.613281
3814.555202	0.932884	144.335937	253.613281
3814.557200	0.935386	144.335937	253.613281
3814.559202	0.933108	10.264189	0.119725
3815.623253	0.610398	390.234375	-155.273437
3815.625255	0.906006	390.234375	-155.273437
3815.627254	0.936138	390.234375	-155.273437
3815.631253	0.931935	10.251285	0.119036
3816.645844	0.935936	145.800781	241.113281
3816.647846	0.935577	145.800781	241.113281
3816.649847	0.933530	10.268832	0.539770
3817.712413	0.553088	395.800781	-148.535156
3817.714415	0.878030	395.800781	-148.535156
3817.716415	0.936679	395.800781	-148.535156
3817.718416	0.933973	10.273706	0.120733
3818.726437	0.694371	141.992187	234.667969
3818.728442	0.930630	141.992187	234.667969
3818.732449	0.933286	141.992187	234.667969
3818.734450	0.931835	10.250186	0.374973
3819.814535	0.868700	414.843750	-146.582031
3819.816537	0.937741	414.843750	-146.582031
3819.818537	0.935052	10.285573	0.112769
3820.803482	0.388179	141.699219	240.429687
3820.805484	0.750388	141.699219	240.429687
3820.809483	0.935146	141.699219	240.429687
3820.811483	0.933149	10.264640	0.123733
3821.905528	0.569238	400.000000	-156.835937
3821.907530	0.887217	400.000000	-156.835937
3821.909531	0.937002	400.000000	-156.835937
3821.911530	0.934442	10.278865	0.112042
3822.885555	0.393085	137.500000	247.949219
3822.889554	0.938337	137.500000	247.949219
3822.891556	0.936445	137.500000	247.949219
3822.895556	0.933194	10.265137	0.115361
3823.991595	0.415072	385.644531	-163.378906
3823.993597	0.775018	385.644531	-163.378906
3823.995596	0.938466	385.644531	-163.378906
3823.997597	0.936033	10.296367	0.124421
3824.980187	0.538228	139.746094	250.683594
3824.982188	0.869118	139.746094	250.683594
3824.984189	0.936759	139.746094	250.683594
3824.986190	0.936605	10.302650	0.115510
3826.074175	0.322921	360.937500	-167.578125
3826.076178	0.688505	360.937500	-167.578125
3826.078179	0.929252	360.937500	-167.578125
3826.080175	0.935237	360.937500	-167.578125
3826.082179	0.932957	10.262531	0.124399
3827.076763	0.436246	137.792969	244.433594
3827.078764	0.450555	137.792969	244.433594
3827.080764	0.938759	137.792969	244.433594
3827.082764	0.935878	10.294657	0.113791
3828.156828	0.801533	342.187500	-167.968750
3828.158831	0.806406	342.187500	-167.968750
3828.160832	0.935349	10.288835	0.118396
3829.168826	0.346934	140.429687	237.597656
3829.170829	0.711258	140.429687	237.597656
3829.172829	0.934052	140.429687	237.597656
3829.174828	0.936104	140.429687	237.597656
3829.176828	0.933984	10.273822	0.111130
3830.238830	0.375954	332.519531	-166.015625
3830.242830	0.936336	332.519531	-166.015625
3830.244831	0.935374	332.519531	-166.015625
3830.246832	0.933207	10.265278	0.122406
3831.260814	0.711629	144.433594	233.007812
3831.262816	0.933181	144.433594	233.007812
3831.264816	0.935188	144.433594	233.007812
3831.266817	0.932907	10.261981	0.113963
3832.325809	0.440965	340.820312	-163.378906
3832.327812	0.797797	340.820312	-163.378906
3832.329813	0.938852	340.820312	-163.378906
3832.331812	0.936007	10.296075	0.125255
3833.347830	0.499971	144.921875	228.027344
3833.349829	0.843731	144.921875	228.027344
3833.351831	0.937374	144.921875	228.027344
3833.353832	0.934429	10.278722	0.118741
3834.414412	0.653452	355.761719	-160.839844
3834.416413	0.920719	355.761719	-160.839844
3834.418414	0.935585	355.761719	-160.839844
3834.420414	0.933208	10.265287	0.204551
3835.437319	0.851514	141.699219	224.023437
3835.439321	0.936912	141.699219	224.023437
3835.441323	0.933931	10.273246	0.109595
3836.503411	0.833305	334.375000	-162.109375
3836.505415	0.938244	334.375000	-162.109375
3836.507415	0.935302	10.288321	0.119296
3837.521432	0.596503	142.578125	223.144531
3837.523434	0.900020	142.578125	223.144531
3837.525434	0.935925	142.578125	223.144531
3837.527440	0.933287	10.266156	0.112732
3838.593494	0.935905	352.539062	-161.328125
3838.595497	0.935671	10.292379	0.529498
3839.609501	0.481368	140.917969	222.167969
3839.611503	0.830512	140.917969	222.167969
3839.613505	0.939204	140.917969	222.167969
3839.615504	0.936224	10.298468	0.111840
3840.677552	0.533329	316.308594	-166.015625
3840.679555	0.866285	316.308594	-166.015625
3840.681558	0.936941	316.308594	-166.015625
3840.683554	0.934180	10.275975	0.118513
3841.699597	0.642860	141.796875	223.535156
3841.701598	0.917659	141.796875	223.535156
3841.703600	0.935848	141.796875	223.535156
3841.705598	0.933361	10.266971	0.148896
3842.763653	0.617834	330.468750	-168.750000
3842.765653	0.908837	330.468750	-168.750000
3842.767656	0.936011	330.468750	-168.750000
3842.769655	0.933483	10.268309	0.122544
3843.784215	0.412373	142.089844	226.074219
3843.786218	0.772505	142.089844	226.074219
3843.788216	0.937967	142.089844	226.074219
3843.790218	0.935534	10.290873	0.108295
3844.852291	0.560335	316.992187	-173.535156
3844.854294	0.881999	316.992187	-173.535156
3844.856294	0.936600	316.992187	-173.535156
3844.858293	0.933704	10.270746	0.120945
3845.868866	0.513635	139.550781	228.906250
3845.870866	0.853297	139.550781	228.906250
3845.872866	0.937044	139.550781	228.906250
3845.874868	0.934060	10.274664	0.106245
3846.944936	0.532046	303.027344	-178.222656
3846.946936	0.865070	303.027344	-178.222656
3846.948937	0.936616	303.027344	-178.222656
3846.950936	0.933681	10.270489	0.119446
3847.951001	0.668812	139.550781	231.835937
3847.953004	0.925204	139.550781	231.835937
3847.955004	0.935858	139.550781	231.835937
3847.957003	0.933508	10.268584	0.104568
3849.039986	0.707359	307.128906	-179.492187
3849.041988	0.932830	307.128906	-179.492187
3849.043988	0.935468	307.128906	-179.492187
3849.045988	0.933182	10.265003	0.415950
3850.032045	0.487092	136.914062	230.761719
3850.034048	0.834341	136.914062	230.761719
3850.036047	0.936770	136.914062	230.761719
3850.038048	0.933683	10.270516	0.100354
3851.131033	0.529272	314.453125	-175.292969
3851.133034	0.863439	314.453125	-175.292969
3851.135033	0.936464	314.453125	-175.292969
3851.137033	0.933556	10.269115	0.114065
3852.119053	0.780194	139.257812	226.367187
3852.121055	0.938064	139.257812	226.367187
3852.123056	0.935353	10.288878	0.102787
3853.219583	0.902410	348.242187	-167.187500
3853.221585	0.935441	348.242187	-167.187500
3853.223586	0.932909	10.261999	0.116087
3854.207644	0.341737	140.820312	216.699219
3854.209647	0.706170	140.820312	216.699219
3854.211646	0.932658	140.820312	216.699219
3854.213646	0.933711	140.820312	216.699219
3854.215645	0.933280	10.266076	0.107787
3855.299709	0.661167	314.257812	-163.867187
3855.301711	0.922746	314.257812	-163.867187
3855.303711	0.935286	314.257812	-163.867187
3855.305709	0.932931	10.262239	0.111482
3856.303772	0.619195	142.382812	209.765625
3856.305774	0.909194	142.382812	209.765625
3856.307776	0.935788	142.382812	209.765625
3856.309775	0.933177	10.264950	0.104624
3857.377326	2.904984	295.898437	-166.699219
3857.382667	0.930731	295.898437	-166.699219
3857.384667	0.935273	295.898437	-166.699219
3857.386668	0.933121	10.264330	0.114402
3858.396765	0.563174	139.843750	210.253906
3858.398767	0.883242	139.843750	210.253906
3858.400766	0.935933	139.843750	210.253906
3858.402765	0.933146	10.264605	0.103687
3859.460840	0.449026	289.062500	-175.488281
3859.464839	0.938050	289.062500	-175.488281
3859.466843	0.934982	289.062500	-175.488281
3859.468841	0.933127	10.264400	0.119764
3860.484878	0.502376	142.871094	216.601562
3860.486878	0.845441	142.871094	216.601562
3860.488878	0.936919	142.871094	216.601562
3860.490878	0.933850	10.272350	0.099249
3861.549846	0.505054	296.679687	-180.273437
3861.551848	0.847457	296.679687	-180.273437
3861.553848	0.936895	296.679687	-180.273437
3861.555849	0.933881	10.272696	0.116170
3862.566819	0.573975	140.234375	221.191406
3862.568818	0.889034	140.234375	221.191406
3862.570819	0.936030	140.234375	221.191406
3862.572819	0.933413	10.267548	0.099779
3863.645386	0.716769	286.816406	-184.375000
3863.647387	0.934701	286.816406	-184.375000
3863.649385	0.935420	286.816406	-184.375000
3863.651387	0.933289	10.266182	0.118073
3864.651963	0.938462	137.011719	222.363281
3864.653964	0.936036	137.011719	222.363281
3864.655965	0.934675	10.281425	0.098098
3865.738581	0.607731	283.300781	-185.156250
3865.740582	0.904850	283.300781	-185.156250
3865.742580	0.936116	283.300781	-185.156250
3865.744582	0.933564	10.269204	0.111743
3866.730659	0.389788	133.203125	219.921875
3866.732658	0.751686	133.203125	219.921875
3866.734660	0.936316	133.203125	219.921875
3866.736660	0.934533	10.279865	0.097504
3867.830720	0.853892	302.929687	-182.910156
3867.832722	0.900034	302.929687	-182.910156
3867.834722	0.933257	10.265828	0.114833
3868.817277	0.708064	137.011719	217.285156
3868.819281	0.932202	137.011719	217.285156
3868.821278	0.934545	137.011719	217.285156
3868.825278	0.931012	10.241129	0.097319
3869.915857	0.629135	308.984375	-179.589844
3869.917857	0.913373	308.984375	-179.589844
3869.919856	0.936497	308.984375	-179.589844
3869.921857	0.934026	10.274291	0.112119
3870.906406	0.882598	133.203125	211.230469
3870.908407	0.936340	133.203125	211.230469
3870.910410	0.933554	10.269090	0.097274
3872.000449	0.395330	299.609375	-177.734375
3872.002452	0.756876	299.609375	-177.734375
3872.004451	0.937586	299.609375	-177.734375
3872.006453	0.935714	10.292858	0.111733
3872.992488	0.682569	134.765625	208.593750
3872.994490	0.928250	134.765625	208.593750
3872.996490	0.935601	134.765625	208.593750
3872.998494	0.933334	10.266670	0.097517
3874.086523	0.382866	294.628906	-176.562500
3874.088525	0.745164	294.628906	-176.562500
3874.090525	0.935873	294.628906	-176.562500
3874.092525	0.934677	10.281443	0.110725
3875.078533	0.335072	137.011719	206.835937
3875.080534	0.699910	137.011719	206.835937
3875.082536	0.931472	137.011719	206.835937
3875.084535	0.932719	137.011719	206.835937
3875.086534	0.932971	10.262682	0.096290
3876.174601	0.503810	305.468750	-175.781250
3876.176601	0.846507	305.468750	-175.781250
3876.178601	0.937364	305.468750	-175.781250
3876.180601	0.934424	10.278669	0.110917
3877.165170	0.429636	137.695312	206.445312
3877.167173	0.787645	137.695312	206.445312
3877.169172	0.937207	137.695312	206.445312
3877.171171	0.934302	10.277323	0.096773
3878.261219	0.355901	296.386719	-177.148437
3878.265245	0.935008	296.386719	-177.148437
3878.267246	0.935506	296.386719	-177.148437
3878.269247	0.933308	10.266386	0.109945
3879.253283	0.600098	139.843750	207.714844
3879.257284	0.936319	139.843750	207.714844
3879.259284	0.936178	139.843750	207.714844
3879.261285	0.932210	10.254307	0.093274
3880.349289	0.518946	294.824219	-179.589844
3880.351291	0.856659	294.824219	-179.589844
3880.353291	0.936562	294.824219	-179.589844
3880.355290	0.933566	10.269222	0.110074
3881.339340	0.583359	133.691406	207.617187
3881.341344	0.893885	133.691406	207.617187
3881.343342	0.936281	133.691406	207.617187
3881.345343	0.933636	10.269993	0.092609
3882.437357	0.544504	305.371094	-182.910156
3882.439358	0.872860	305.371094	-182.910156
3882.441361	0.936600	305.371094	-182.910156
3882.443358	0.933855	10.272404	0.112911
3883.425379	0.378862	132.617187	210.156250
3883.427380	0.741341	132.617187	210.156250
3883.429380	0.935943	132.617187	210.156250
3883.431381	0.934847	10.283322	0.092573
3884.525437	0.753852	277.148437	-187.792969
3884.527439	0.936241	277.148437	-187.792969
3884.529440	0.934366	10.278031	0.112806
3885.513507	0.414614	138.183594	212.304687
3885.515509	0.774494	138.183594	212.304687
3885.517510	0.938272	138.183594	212.304687
3885.519508	0.938316	10.321474	0.091357
3886.607583	0.496301	274.609375	-191.113281
3886.609587	0.841306	274.609375	-191.113281
3886.611585	0.937960	274.609375	-191.113281
3886.613587	0.935072	10.285794	0.112918
3887.608102	0.882035	137.890625	212.207031
3887.610104	0.935936	137.890625	212.207031
3887.612105	0.933191	10.265101	0.089568
3888.688644	0.455691	241.210937	-192.773437
3888.690647	0.810023	241.210937	-192.773437
3888.692647	0.939328	241.210937	-192.773437
3888.694647	0.936473	10.301207	0.114542
3889.698695	0.617395	140.332031	209.765625
3889.700695	0.908353	140.332031	209.765625
3889.702695	0.935585	140.332031	209.765625
3889.704694	0.933003	10.263037	0.091537
3890.769621	0.494870	243.066406	-190.820312
3890.771623	0.840239	243.066406	-190.820312
3890.773621	0.938020	243.066406	-190.820312
3890.775622	0.937891	10.316804	0.114021
3891.789686	0.478223	141.113281	204.687500
3891.791688	0.827622	141.113281	204.687500
3891.793688	0.937334	141.113281	204.687500
3891.795688	0.934235	10.276587	0.092919
3892.855742	0.897497	262.792969	-185.644531
3892.857745	0.935907	262.792969	-185.644531
3892.859743	0.933293	10.266217	0.111788
3893.879762	0.844604	139.648437	198.535156
3893.881765	0.937083	139.648437	198.535156
3893.885763	0.932344	10.255787	0.091407
3894.941781	0.374873	268.066406	-179.394531
3894.943781	0.737665	268.066406	-179.394531
3894.945783	0.935865	268.066406	-179.394531
3894.949781	0.932870	10.261565	0.110473
3895.962365	0.877725	138.183594	193.066406
3895.964366	0.936514	138.183594	193.066406
3895.966366	0.933770	10.271473	0.092524
3897.036411	0.831543	257.812500	-176.367187
3897.038412	0.836895	257.812500	-176.367187
3897.040412	0.934599	10.280583	0.111368
3898.040468	0.386798	136.718750	192.480469
3898.042470	0.748887	136.718750	192.480469
3898.044471	0.936133	136.718750	192.480469
3898.046471	0.934521	10.279733	0.096374
3899.130563	0.915581	286.328125	-178.125000
3899.132569	0.936310	286.328125	-178.125000
3899.134572	0.933903	10.272936	0.107382
3900.124640	0.678872	138.964844	197.851562
3900.126642	0.927250	138.964844	197.851562
3900.128642	0.935373	138.964844	197.851562
3900.130642	0.933086	10.263949	0.278868
3901.217225	0.346559	274.218750	-183.496094
3901.219225	0.710728	274.218750	-183.496094
3901.221227	0.933735	274.218750	-183.496094
3901.223226	0.935853	274.218750	-183.496094
3901.225227	0.933669	10.270357	0.104324
3902.207304	0.420864	136.621094	203.027344
3902.209307	0.780002	136.621094	203.027344
3902.211307	0.938218	136.621094	203.027344
3902.213307	0.935558	10.291139	0.088695
3903.309320	0.936188	273.925781	-187.890625
3903.311321	0.936058	273.925781	-187.890625
3903.313323	0.931614	10.247758	0.107050
3904.295893	0.538296	133.496094	206.347656
3904.297893	0.868889	133.496094	206.347656
3904.299893	0.936106	133.496094	206.347656
3904.301894	0.933269	10.265961	0.085954
3905.389911	0.468548	246.777344	-192.773437
3905.391914	0.820226	246.777344	-192.773437
3905.393913	0.938674	246.777344	-192.773437
3905.395913	0.935734	10.293071	0.109966
3906.385949	0.505913	135.742187	207.714844
3906.387952	0.847696	135.742187	207.714844
3906.389952	0.936371	135.742187	207.714844
3906.391951	0.933238	10.265615	0.085450
3907.473984	0.697156	231.250000	-194.433594
3907.475986	0.930724	231.250000	-194.433594
3907.477988	0.934946	231.250000	-194.433594
3907.481984	0.931435	10.245790	0.376963
3908.476038	0.479254	137.792969	207.421875
3908.478040	0.828526	137.792969	207.421875
3908.480041	0.938098	137.792969	207.421875
3908.482040	0.935142	10.286556	0.086987
3909.558081	0.605817	220.410156	-194.726562
3909.560081	0.903836	220.410156	-194.726562
3909.562083	0.935757	220.410156	-194.726562
3909.564083	0.933208	10.265287	0.107896
3910.566096	0.492062	141.503906	206.152344
3910.568098	0.837864	141.503906	206.152344
3910.570099	0.937314	141.503906	206.152344
3910.574097	0.932426	10.256691	0.087674
3911.642113	0.878646	238.574219	-195.312500
3911.644115	0.936012	238.574219	-195.312500
3911.646113	0.933195	10.265145	0.111448
3912.652669	0.570039	140.039062	204.785156
3912.654670	0.887064	140.039062	204.785156
3912.656670	0.936134	140.039062	204.785156
3912.658669	0.933509	10.268601	0.089646
3913.726724	0.817275	213.378906	-194.042969
3913.728727	0.937219	213.378906	-194.042969
3913.732724	0.932327	10.255592	0.111918
3914.742743	0.723631	138.769531	203.417969
3914.744747	0.934691	138.769531	203.417969
3914.746747	0.935025	10.285272	0.089436
3915.812825	0.585554	214.453125	-194.824219
3915.814826	0.894867	214.453125	-194.824219
3915.816825	0.936008	214.453125	-194.824219
3915.818825	0.933326	10.266590	0.107809
3916.826854	0.543949	139.648437	202.246094
3916.828856	0.872375	139.648437	202.246094
3916.830856	0.936384	139.648437	202.246094
3916.832856	0.933507	10.268576	0.086454
3917.900886	0.887805	212.695312	-195.996094
3917.902889	0.935918	212.695312	-195.996094
3917.904888	0.933259	10.265846	0.108914
3918.912955	0.489265	141.015625	202.246094
3918.914957	0.835747	141.015625	202.246094
3918.916957	0.936828	141.015625	202.246094
3918.918958	0.933695	10.270640	0.087190
3919.987921	0.446147	228.125000	-197.167969
3919.989917	0.801841	228.125000	-197.167969
3919.991917	0.937991	228.125000	-197.167969
3919.993917	0.934995	10.284944	0.108561
3920.997954	0.467607	136.425781	202.734375
3920.999957	0.819331	136.425781	202.734375
3921.001957	0.938044	136.425781	202.734375
3921.003958	0.935032	10.285352	0.087637
3922.078080	0.891081	225.878906	-198.046875
3922.080082	0.935985	225.878906	-198.046875
3922.082082	0.933272	10.265996	0.108125
3923.082128	0.480226	138.183594	202.734375
3923.084127	0.829191	138.183594	202.734375
3923.086127	0.937808	138.183594	202.734375
3923.088130	0.934822	10.283038	0.085743
3924.165107	0.404579	221.191406	-198.242187
3924.167109	0.765221	221.191406	-198.242187
3924.169109	0.936752	221.191406	-198.242187
3924.171109	0.934487	10.279351	0.108729
3925.165166	0.474967	135.351562	202.441406
3925.167166	0.824961	135.351562	202.441406
3925.169166	0.936907	135.351562	202.441406
3925.171168	0.933785	10.271632	0.085768
3926.257247	0.704099	253.417969	-197.070312
3926.259249	0.932547	253.417969	-197.070312
3926.261249	0.935728	253.417969	-197.070312
3926.263249	0.933460	10.268062	0.108495
3927.252251	0.781394	133.300781	201.269531
3927.254252	0.794280	133.300781	201.269531
3927.256252	0.933993	10.273928	0.081895
3928.344339	0.642728	244.628906	-193.457031
3928.346341	0.917567	244.628906	-193.457031
3928.348341	0.935870	244.628906	-193.457031
3928.350340	0.933340	10.266741	0.150200
3929.336369	0.557075	134.960937	198.535156
3929.338368	0.879987	134.960937	198.535156
3929.340369	0.936206	134.960937	198.535156
3929.342368	0.933384	10.267220	0.080712
3930.436973	0.936690	255.664062	-189.062500
3930.438976	0.933711	255.664062	-189.062500
3930.440976	0.931952	10.251471	0.106547
3931.423498	0.687127	135.644531	193.359375
3931.429499	0.932932	135.644531	193.359375
3931.431501	0.931477	135.644531	193.359375
3931.433501	0.930635	10.236990	0.085070
3932.515576	0.729388	270.898437	-184.082031
3932.517577	0.934596	270.898437	-184.082031
3932.519576	0.934453	10.278979	0.512484
3933.515587	0.859145	134.765625	188.574219
3933.517588	0.936643	134.765625	188.574219
3933.519590	0.933690	10.270587	0.083564
3934.597667	0.506604	256.933594	-180.371094
3934.599670	0.848190	256.933594	-180.371094
3934.601669	0.936816	256.933594	-180.371094
3934.603671	0.933761	10.271376	0.105908
3935.606199	0.914396	137.402344	186.621094
3935.608201	0.935118	137.402344	186.621094
3935.610201	0.932635	10.258986	0.085746
3936.678307	0.439056	238.476562	-180.566406
3936.680309	0.795810	238.476562	-180.566406
3936.682309	0.938118	238.476562	-180.566406
3936.684308	0.935339	10.288728	0.105875
3937.696385	0.385992	139.648437	187.695312
3937.698388	0.747931	139.648437	187.695312
3937.700386	0.937028	139.648437	187.695312
3937.702386	0.935599	10.291591	0.086489
3938.762483	0.634634	229.394531	-186.230469
3938.764483	0.914507	229.394531	-186.230469
3938.766483	0.935225	229.394531	-186.230469
3938.768484	0.932736	10.260094	0.106437
3939.786542	0.553661	141.796875	191.503906
3939.788544	0.877984	141.796875	191.503906
3939.790545	0.936306	141.796875	191.503906
3939.792544	0.933510	10.268611	0.086147
3940.849124	0.634235	222.558594	-192.187500
3940.851127	0.914873	222.558594	-192.187500
3940.853127	0.935987	222.558594	-192.187500
3940.855127	0.933540	10.268938	0.097435
3941.870073	0.499094	142.871094	195.214844
3941.872075	0.842579	142.871094	195.214844
3941.874074	0.935819	142.871094	195.214844
3941.876074	0.932635	10.258986	0.083483
3942.936119	0.509694	205.859375	-195.898437
3942.938123	0.850173	205.859375	-195.898437
3942.940122	0.936166	205.859375	-195.898437
3942.942123	0.933089	10.263976	0.105772
3943.954166	0.637655	138.378906	198.339844
3943.956168	0.915305	138.378906	198.339844
3943.958168	0.934907	138.378906	198.339844
3943.960168	0.932409	10.256495	0.101736
3945.026198	0.528524	206.933594	-198.242187
3945.028197	0.862527	206.933594	-198.242187
3945.030198	0.935818	206.933594	-198.242187
3945.032198	0.932904	10.261946	0.107109
3946.036242	0.458705	139.550781	199.707031
3946.038242	0.812171	139.550781	199.707031
3946.040243	0.937778	139.550781	199.707031
3946.042244	0.934781	10.282587	0.083720
3947.119162	0.906399	226.074219	-199.511719
3947.121166	0.935490	226.074219	-199.511719
3947.123166	0.932966	10.262629	0.099668
3948.121180	0.609168	134.472656	200.878906
3948.123180	0.905540	134.472656	200.878906
3948.125181	0.936429	134.472656	200.878906
3948.127182	0.933853	10.272386	0.083117
3949.207217	0.623463	234.082031	-199.218750
3949.209217	0.910541	234.082031	-199.218750
3949.211218	0.935320	234.082031	-199.218750
3949.213219	0.932857	10.261432	0.099933
3950.209235	0.937717	137.500000	199.804687
3950.211238	0.934674	137.500000	199.804687
3950.213237	0.932828	10.261113	0.081430
3951.293237	0.370916	228.906250	-197.460937
3951.295239	0.733749	228.906250	-197.460937
3951.297240	0.935333	228.906250	-197.460937
3951.299239	0.934883	10.283711	0.106692
3952.291295	0.542238	131.054687	200.097656
3952.293298	0.871320	131.054687	200.097656
3952.295296	0.936277	131.054687	200.097656
3952.297297	0.933391	10.267299	0.081266
3953.381330	0.349514	217.871094	-195.996094
3953.383333	0.713448	217.871094	-195.996094
3953.385341	0.934397	217.871094	-195.996094
3953.387341	0.936144	217.871094	-195.996094
3953.389340	0.934033	10.274363	0.103981
3954.379372	0.794639	132.324219	199.511719
3954.381375	0.936883	132.324219	199.511719
3954.383376	0.933983	10.273812	0.079509
3955.469458	0.621546	244.824219	-197.460937
3955.471460	0.909845	244.824219	-197.460937
3955.473460	0.935361	244.824219	-197.460937
3955.475460	0.932793	10.260723	0.104988
3956.463467	0.567367	131.933594	199.511719
3956.465469	0.885406	131.933594	199.511719
3956.467469	0.935775	131.933594	199.511719
3956.469469	0.933015	10.263168	0.078936
3957.555532	0.608185	224.804687	-197.070312
3957.557534	0.904595	224.804687	-197.070312
3957.559533	0.935374	224.804687	-197.070312
3957.561533	0.932758	10.260343	0.101967
3958.549594	0.376223	132.324219	199.609375
3958.551596	0.738798	132.324219	199.609375
3958.553596	0.936654	132.324219	199.609375
3958.555596	0.935795	10.293744	0.080470
3959.639682	0.382816	216.796875	-197.656250
3959.641684	0.745013	216.796875	-197.656250
3959.645682	0.935739	216.796875	-197.656250
3959.647685	0.933551	10.269062	0.105020
3960.641731	0.914566	133.105469	200.292969
3960.643734	0.935292	133.105469	200.292969
3960.645732	0.932691	10.259598	0.078406
3961.723741	0.375743	209.960937	-198.144531
3961.725743	0.738337	209.960937	-198.144531
3961.727742	0.935407	209.960937	-198.144531
3961.729745	0.934373	10.278102	0.106160
3962.727785	0.657893	137.304687	199.609375
3962.729789	0.921652	137.304687	199.609375
3962.731788	0.935006	137.304687	199.609375
3962.733789	0.932565	10.258215	0.180599
3963.807834	0.562625	224.218750	-199.414062
3963.809837	0.883092	224.218750	-199.414062
3963.811835	0.936248	224.218750	-199.414062
3963.813837	0.933489	10.268380	0.102736
3964.816785	0.617685	137.304687	199.511719
3964.818789	0.907982	137.304687	199.511719
3964.820788	0.934899	137.304687	199.511719
3964.822791	0.932248	10.254732	0.080672
3965.890823	0.501103	198.632812	-198.046875
3965.894823	0.936609	198.632812	-198.046875
3965.896824	0.933536	198.632812	-198.046875
3965.898825	0.931776	10.249539	0.105884
3966.906850	0.585927	137.402344	197.851562
3966.908849	0.894655	137.402344	197.851562
3966.910849	0.935399	137.402344	197.851562
3966.912849	0.932733	10.260058	0.080914
3967.974912	0.684683	216.015625	-196.484375
3967.976912	0.927729	216.015625	-196.484375
3967.978913	0.934188	216.015625	-196.484375
3967.980912	0.931840	10.250238	0.103872
3968.997490	0.909729	141.601562	195.117187
3968.999492	0.935985	141.601562	195.117187
3969.001491	0.933422	10.267644	0.081970
3970.058072	0.376166	219.726562	-193.164062
3970.060074	0.738672	219.726562	-193.164062
3970.062072	0.936002	219.726562	-193.164062
3970.064074	0.935240	10.287638	0.104675
3971.083019	0.502436	138.769531	191.406250
3971.087019	0.936569	138.769531	191.406250
3971.089026	0.933527	138.769531	191.406250
3971.091033	0.931792	10.249707	0.081487
3972.147069	0.659959	218.261719	-187.500000
3972.149071	0.922014	218.261719	-187.500000
3972.151071	0.934725	218.261719	-187.500000
3972.153070	0.932360	10.255964	0.222492
3973.167625	0.592020	141.015625	186.816406
3973.169624	0.897692	141.015625	186.816406
3973.171623	0.935574	141.015625	186.816406
3973.173624	0.932906	10.261964	0.081995
3974.236195	0.903692	209.277344	-182.031250
3974.238197	0.934993	209.277344	-182.031250
3974.240199	0.932419	10.256611	0.101308
3975.250250	0.325106	135.937500	184.863281
3975.252252	0.690314	135.937500	184.863281
3975.254254	0.928981	135.937500	184.863281
3975.256253	0.934441	135.937500	184.863281
3975.258252	0.932190	10.254086	0.080333
3976.326270	0.794761	214.843750	-179.492187
3976.328273	0.937102	214.843750	-179.492187
3976.330273	0.934150	10.275647	0.101311
3977.332336	0.330937	138.281250	184.277344
3977.334338	0.695801	138.281250	184.277344
3977.336336	0.931476	138.281250	184.277344
3977.338338	0.936234	138.281250	184.277344
3977.340337	0.934090	10.274992	0.082365
3978.418373	0.806361	239.550781	-181.542969
3978.420376	0.936351	239.550781	-181.542969
3978.422376	0.933119	10.264313	0.099035
3979.420435	0.936359	136.132812	186.816406
3979.422436	0.933370	10.267069	0.078338
3980.506999	0.794511	248.242187	-184.863281
3980.509003	0.937094	248.242187	-184.863281
3980.511004	0.934077	10.274850	0.098606
3981.501581	0.617916	135.156250	190.722656
3981.503583	0.908659	135.156250	190.722656
3981.505583	0.935716	135.156250	190.722656
3981.507584	0.933187	10.265057	0.076290
3982.594104	0.321184	238.867187	-187.988281
3982.596105	0.686593	238.867187	-187.988281
3982.600102	0.934844	238.867187	-187.988281
3982.602105	0.932551	238.867187	-187.988281
3982.604104	0.931191	10.243096	0.098972
3983.586145	0.519102	133.398437	194.140625
3983.588147	0.856500	133.398437	194.140625
3983.590148	0.936404	133.398437	194.140625
3983.592147	0.933461	10.268070	0.076111
3984.680211	0.459278	249.316406	-191.699219
3984.682214	0.812704	249.316406	-191.699219
3984.684213	0.938036	249.316406	-191.699219
3984.686215	0.935013	10.285139	0.105687
3985.673174	0.676829	131.347656	196.484375
3985.675174	0.926600	131.347656	196.484375
3985.677176	0.935102	131.347656	196.484375
3985.679175	0.932753	10.260280	0.264635
3986.767213	0.522111	226.855469	-193.164062
3986.769215	0.858503	226.855469	-193.164062
3986.771215	0.936255	226.855469	-193.164062
3986.773215	0.933252	10.265775	0.099344
3987.759291	0.395682	129.589844	198.046875
3987.761293	0.757119	129.589844	198.046875
3987.763294	0.938127	129.589844	198.046875
3987.765293	0.936333	10.299664	0.078169
3988.851344	0.339475	214.941406	-194.335937
3988.853346	0.703897	214.941406	-194.335937
3988.855347	0.931286	214.941406	-194.335937
3988.857346	0.934344	214.941406	-194.335937
3988.859347	0.932050	10.252552	0.104112
3989.849401	0.824427	133.886719	198.144531
3989.851404	0.937253	133.886719	198.144531
3989.853403	0.934173	10.275904	0.078041
3990.941932	0.929520	224.511719	-196.582031
3990.943935	0.934932	224.511719	-196.582031
3990.945933	0.932622	10.258844	0.349128
3991.936494	0.774353	134.179687	198.535156
3991.938495	0.937061	134.179687	198.535156
3991.940497	0.934521	10.279733	0.074735
3993.025083	0.604888	219.628906	-197.070312
3993.027085	0.903260	219.628906	-197.070312
3993.029085	0.935336	219.628906	-197.070312
3993.031085	0.932816	10.260981	0.100092
3994.021096	0.308394	132.519531	199.218750
3994.023100	0.674372	132.519531	199.218750
3994.025096	0.925931	132.519531	199.218750
3994.027098	0.934969	132.519531	199.218750
3994.029098	0.932563	10.258198	0.078274
3995.109145	0.317522	229.980469	-197.363281
3995.113145	0.928054	229.980469	-197.363281
3995.115146	0.935112	229.980469	-197.363281
3995.117147	0.932772	10.260492	0.104176
3996.111164	0.885636	135.449219	199.316406
3996.113167	0.935296	135.449219	199.316406
3996.115167	0.932559	10.258153	0.074527
3997.197721	0.667686	210.742187	-195.410156
3997.199722	0.924591	210.742187	-195.410156
3997.201724	0.935387	210.742187	-195.410156
3997.203725	0.933063	10.263692	0.241331
3998.195760	0.824047	130.175781	199.218750
3998.197762	0.936879	130.175781	199.218750
3998.199760	0.933728	10.271012	0.076757
3999.285820	0.511117	209.667969	-195.117187
3999.287822	0.851233	209.667969	-195.117187
3999.289822	0.936638	209.667969	-195.117187
3999.291823	0.933543	10.268974	0.100401
4000.279859	0.737833	128.613281	199.023437
4000.281857	0.935621	128.613281	199.023437
4000.283860	0.934792	10.282710	0.526367
4001.373884	0.841767	224.121094	-194.628906
4001.375886	0.936535	224.121094	-194.628906
4001.377888	0.933462	10.268079	0.100568
4002.369946	0.934977	133.691406	197.460937
4002.371948	0.932517	133.691406	197.460937
4002.373949	0.931216	10.243380	0.094473
4003.460879	0.777927	232.128906	-192.675781
4003.462882	0.937195	232.128906	-192.675781
4003.464881	0.934441	10.278855	0.100849
4004.451428	0.563500	131.347656	197.167969
4004.453434	0.883403	131.347656	197.167969
4004.455441	0.935988	131.347656	197.167969
4004.457444	0.933218	10.265393	0.074755
4005.547520	0.684068	236.718750	-189.550781
4005.549523	0.928110	236.718750	-189.550781
4005.551522	0.934880	236.718750	-189.550781
4005.553522	0.932623	10.258853	0.307618
4006.538092	0.611023	130.468750	195.800781
4006.540095	0.905811	130.468750	195.800781
4006.542094	0.935573	130.468750	195.800781
4006.544097	0.932947	10.262416	0.074737
4007.634162	0.848917	230.957031	-185.253906
4007.636165	0.936601	230.957031	-185.253906
4007.638165	0.933525	10.268779	0.099527
4008.624212	0.422891	131.640625	193.066406
4008.626214	0.781578	131.640625	193.066406
4008.628214	0.936771	131.640625	193.066406
4008.630215	0.933910	10.273006	0.076537
4009.718267	0.685341	245.312500	-182.519531
4009.720270	0.928016	245.312500	-182.519531
4009.722270	0.934473	245.312500	-182.519531
4009.724268	0.932112	10.253235	0.100025
4010.714859	0.729102	135.253906	189.453125
4010.716861	0.934816	135.253906	189.453125
4010.720860	0.932371	10.256080	0.076306
4011.799451	0.389068	250.781250	-179.199219
4011.801453	0.750836	250.781250	-179.199219
4011.803451	0.937018	250.781250	-179.199219
4011.805452	0.935494	10.290439	0.101186
4012.803491	0.621948	134.375000	187.695312
4012.805492	0.909912	134.375000	187.695312
4012.807493	0.935326	134.375000	187.695312
4012.811493	0.931315	10.244470	0.075923
4013.885504	0.857809	241.992187	-177.441406
4013.887507	0.936117	241.992187	-177.441406
4013.889506	0.933131	10.264436	0.098332
4014.894078	0.683330	135.156250	186.914062
4014.896082	0.927483	135.156250	186.914062
4014.898080	0.934335	135.156250	186.914062
4014.900080	0.932033	10.252366	0.078644
4015.968110	0.862869	215.136719	-177.441406
4015.970113	0.936372	215.136719	-177.441406
4015.972112	0.933356	10.266918	0.098783
4016.984164	0.654358	135.937500	187.988281
4016.986167	0.920405	135.937500	187.988281
4016.990164	0.932311	135.937500	187.988281
4016.992166	0.931008	10.241084	0.160601
4018.050229	0.578057	219.531250	-181.445312
4018.052229	0.890926	219.531250	-181.445312
4018.054231	0.935543	219.531250	-181.445312
4018.058229	0.931337	10.244709	0.099077
4019.070785	0.321455	138.476562	191.308594
4019.072787	0.686771	138.476562	191.308594
4019.074787	0.928773	138.476562	191.308594
4019.076788	0.935021	138.476562	191.308594
4019.078788	0.932633	10.258960	0.078579
4020.134796	0.570230	218.847656	-185.742187
4020.136797	0.887231	218.847656	-185.742187
4020.140798	0.933673	218.847656	-185.742187
4020.142800	0.932034	10.252375	0.099937
4021.157713	0.514054	135.644531	195.605469
4021.161714	0.936354	135.644531	195.605469
4021.163715	0.933416	135.644531	195.605469
4021.165715	0.931630	10.247934	0.080341
4022.219754	0.304750	192.089844	-187.402344
4022.221757	0.320295	192.089844	-187.402344
4022.223758	0.925370	192.089844	-187.402344
4022.225756	0.926960	192.089844	-187.402344
4022.227758	0.932927	10.262195	0.102350
4023.243824	0.319540	139.648437	198.632812
4023.245829	0.684817	139.648437	198.632812
4023.247829	0.927910	139.648437	198.632812
4023.249831	0.934243	139.648437	198.632812
4023.251831	0.932011	10.252118	0.077660
4024.310384	0.750925	211.425781	-191.601562
4024.314385	0.934192	211.425781	-191.601562
4024.318388	0.930983	10.240818	0.098634
4025.331379	0.895348	139.453125	200.781250
4025.333382	0.935382	139.453125	200.781250
4025.335381	0.932696	10.259660	0.080104
4026.395929	0.314682	190.136719	-191.308594
4026.397932	0.680234	190.136719	-191.308594
4026.399932	0.926831	190.136719	-191.308594
4026.401931	0.934404	190.136719	-191.308594
4026.403931	0.931987	10.251861	0.100714
4027.411965	0.405397	135.253906	203.808594
4027.413968	0.765890	135.253906	203.808594
4027.415967	0.937410	135.253906	203.808594
4027.417968	0.935088	10.285972	0.079293
4028.488023	0.747438	194.824219	-191.796875
4028.490026	0.936311	194.824219	-191.796875
4028.494023	0.932777	10.260546	0.098649
4029.498082	0.723805	138.964844	202.539062
4029.500084	0.934857	138.964844	202.539062
4029.502083	0.935352	10.288870	0.465851
4030.576068	0.673596	192.187500	-190.527344
4030.578067	0.925482	192.187500	-190.527344
4030.580070	0.934488	192.187500	-190.527344
4030.582068	0.932124	10.253367	0.098122
4031.584081	0.859911	136.523437	204.492187
4031.586083	0.936473	136.523437	204.492187
4031.588084	0.933456	10.268017	0.077099
4032.662646	0.334007	196.582031	-190.820312
4032.664649	0.698659	196.582031	-190.820312
4032.666650	0.930573	196.582031	-190.820312
4032.668649	0.934538	196.582031	-190.820312
4032.670650	0.932180	10.253979	0.097607
4033.668708	0.519045	134.375000	204.687500
4033.670709	0.856312	134.375000	204.687500
4033.672710	0.935815	134.375000	204.687500
4033.674709	0.932745	10.260201	0.075291
4034.748766	0.426210	200.585937	-191.503906
4034.750767	0.784580	200.585937	-191.503906
4034.752768	0.937820	200.585937	-191.503906
4034.754768	0.935173	10.286902	0.098191
4035.756817	0.901929	137.011719	203.417969
4035.758817	0.935329	137.011719	203.417969
4035.760818	0.932669	10.259358	0.073924
4036.833777	0.308085	198.925781	-191.015625
4036.835779	0.673986	198.925781	-191.015625
4036.837781	0.926060	198.925781	-191.015625
4036.839781	0.935275	198.925781	-191.015625
4036.843780	0.931486	10.246348	0.101317
4037.841876	0.716934	135.253906	204.003906
4037.843875	0.933666	135.253906	204.003906
4037.845875	0.934328	135.253906	204.003906
4037.847875	0.932144	10.253580	0.438602
4038.922456	0.585007	212.597656	-191.992187
4038.924459	0.894101	212.597656	-191.992187
4038.926458	0.935230	212.597656	-191.992187
4038.928459	0.932541	10.257949	0.095536
4039.928986	0.291577	133.398437	205.175781
4039.932987	0.921601	133.398437	205.175781
4039.934988	0.934759	133.398437	205.175781
4039.936988	0.932332	10.255653	0.075276
4041.005006	0.349778	195.605469	-190.429687
4041.007018	0.713495	195.605469	-190.429687
4041.009017	0.935390	195.605469	-190.429687
4041.011018	0.937183	195.605469	-190.429687
4041.013023	0.935196	10.287150	0.097269
4042.017053	0.549954	134.179687	204.980469
4042.019058	0.875665	134.179687	204.980469
4042.021061	0.936052	134.179687	204.980469
4042.023062	0.933201	10.265207	0.077649
4043.091126	0.671775	214.941406	-192.089844
4043.093128	0.925198	214.941406	-192.089844
4043.095127	0.934948	214.941406	-192.089844
4043.099128	0.931165	10.242812	0.098489
4044.105712	0.451381	136.523437	203.417969
4044.107713	0.806219	136.523437	203.417969
4044.109713	0.938143	136.523437	203.417969
4044.111714	0.935206	10.287266	0.076981
4045.177735	0.911078	181.835937	-187.304687
4045.179738	0.935356	181.835937	-187.304687
4045.183735	0.931471	10.246181	0.095684
4046.197831	0.936112	134.765625	202.832031
4046.199833	0.934426	134.765625	202.832031
4046.203831	0.931163	10.242794	0.077098
4047.259865	0.493733	208.105469	-187.109375
4047.261867	0.839513	208.105469	-187.109375
4047.263868	0.938848	208.105469	-187.109375
4047.265868	0.935852	10.294374	0.095655
4048.282468	0.470567	134.179687	201.171875
4048.284469	0.822378	134.179687	201.171875
4048.288468	0.938670	134.179687	201.171875
4048.290469	0.937004	10.307046	0.075745
4049.344472	0.351483	203.613281	-183.593750
4049.348474	0.935856	203.613281	-183.593750
4049.350475	0.937562	203.613281	-183.593750
4049.352474	0.935600	10.291599	0.100804
4050.370489	0.625261	141.015625	195.898437
4050.372491	0.911312	141.015625	195.898437
4050.374490	0.935406	141.015625	195.898437
4050.376491	0.932731	10.260040	0.075370
4051.430528	0.382993	203.710937	-179.199219
4051.432529	0.745103	203.710937	-179.199219
4051.434530	0.935557	203.710937	-179.199219
4051.436529	0.934006	10.274061	0.098963
4052.456628	0.895585	135.449219	194.824219
4052.462626	0.931495	135.449219	194.824219
4052.464628	0.930636	10.236999	0.075260
4053.520667	0.596593	219.726562	-176.074219
4053.522669	0.899581	219.726562	-176.074219
4053.524671	0.935432	219.726562	-176.074219
4053.526670	0.932810	10.260909	0.095387
4054.538713	0.447158	135.937500	191.796875
4054.540714	0.802511	135.937500	191.796875
4054.542714	0.937723	135.937500	191.796875
4054.544714	0.934719	10.281904	0.076311
4055.608737	0.576443	219.042969	-171.875000
4055.610739	0.890985	219.042969	-171.875000
4055.612739	0.937559	219.042969	-171.875000
4055.614738	0.935141	10.286548	0.096012
4056.622780	1.426663	133.496094	191.406250
4056.624781	0.892371	133.496094	191.406250
4056.626782	0.935847	133.496094	191.406250
4056.628783	0.933081	10.263886	0.075737
4057.698847	0.688620	234.375000	-171.386719
4057.700846	0.928825	234.375000	-171.386719
4057.702848	0.934557	234.375000	-171.386719
4057.704848	0.932218	10.254395	0.332296
4058.706903	0.719040	131.054687	192.578125
4058.708901	0.933539	131.054687	192.578125
4058.710902	0.934055	131.054687	192.578125
4058.712902	0.931916	10.251072	0.075553
4059.786947	0.489951	232.812500	-171.777344
4059.788947	0.836090	232.812500	-171.777344
4059.790948	0.936391	232.812500	-171.777344
4059.792948	0.933247	10.265713	0.095032
4060.788985	0.357605	131.640625	193.261719
4060.790987	0.721160	131.640625	193.261719
4060.792991	0.934120	131.640625	193.261719
4060.794991	0.934631	10.280938	0.074294
4061.875036	0.376235	230.566406	-173.632812
4061.877037	0.738688	230.566406	-173.632812
4061.879036	0.935139	230.566406	-173.632812
4061.881038	0.934160	10.275763	0.098706
4062.875110	0.635743	129.296875	195.605469
4062.877112	0.915047	129.296875	195.605469
4062.879112	0.935527	129.296875	195.605469
4062.881111	0.932998	10.262974	0.078455
4063.967201	0.916803	223.925781	-175.585937
4063.969204	0.934814	223.925781	-175.585937
4063.971205	0.932303	10.255335	0.133718
4064.959246	0.549473	132.812500	196.093750
4064.961246	0.875569	132.812500	196.093750
4064.963249	0.936354	132.812500	196.093750
4064.965248	0.933480	10.268283	0.073605
4066.054253	0.793970	240.332031	-178.027344
4066.056257	0.936378	240.332031	-178.027344
4066.058255	0.933332	10.266652	0.094901
4067.048368	0.935146	125.878906	200.195312
4067.050368	0.935721	125.878906	200.195312
4067.052369	0.933569	10.269258	0.437970
4068.138428	0.443925	237.109375	-178.710937
4068.140430	0.459365	237.109375	-178.710937
4068.142430	0.936887	237.109375	-178.710937
4068.144430	0.933772	10.271491	0.097124
4069.132454	0.624000	125.488281	202.246094
4069.136455	0.934947	125.488281	202.246094
4069.138456	0.932357	125.488281	202.246094
4069.140456	0.931028	10.241306	0.070521
4070.226538	0.613997	233.007812	-179.199219
4070.230538	0.935741	233.007812	-179.199219
4070.232539	0.933069	233.007812	-179.199219
4070.234538	0.931610	10.247705	0.095318
4071.216585	0.446046	132.031250	200.878906
4071.218586	0.801490	132.031250	200.878906
4071.220585	0.937765	132.031250	200.878906
4071.222586	0.934834	10.283172	0.072489
4072.314667	0.921178	244.042969	-180.273437
4072.316670	0.934629	244.042969	-180.273437
4072.318670	0.932163	10.253793	0.098137
4073.305292	0.583364	130.957031	202.441406
4073.307294	0.893535	130.957031	202.441406
4073.309295	0.896874	130.957031	202.441406
4073.311294	0.932936	10.262292	0.069614
4074.403355	0.889553	248.925781	-180.957031
4074.405357	0.933473	10.268203	0.094433
4075.392317	0.650412	127.148437	203.808594
4075.394320	0.919240	127.148437	203.808594
4075.396319	0.934747	127.148437	203.808594
4075.398320	0.932381	10.256195	0.137247
4076.484423	0.467195	228.027344	-178.027344
4076.486424	0.818923	228.027344	-178.027344
4076.488423	0.937473	228.027344	-178.027344
4076.492422	0.932619	10.258809	0.095982
4077.478446	0.738783	130.761719	202.929687
4077.480448	0.934908	130.761719	202.929687
4077.482448	0.933890	10.272784	0.072603
4078.570991	0.452011	256.933594	-179.687500
4078.572995	0.806726	256.933594	-179.687500
4078.574993	0.938081	256.933594	-179.687500
4078.576993	0.935081	10.285892	0.094973
4079.565024	0.587434	128.222656	203.710937
4079.567025	0.895615	128.222656	203.710937
4079.569025	0.935816	128.222656	203.710937
4079.573023	0.931682	10.248502	0.070328
4080.657073	0.438840	232.324219	-175.781250
4080.659074	0.795632	232.324219	-175.781250
4080.661073	0.938121	232.324219	-175.781250
4080.663072	0.935247	10.287718	0.097447
4081.653085	0.908139	127.832031	202.734375
4081.655088	0.935214	127.832031	202.734375
4081.657086	0.932686	10.259544	0.071647
4082.743141	0.426070	258.007812	-175.781250
4082.745142	0.784411	258.007812	-175.781250
4082.747142	0.937651	258.007812	-175.781250
4082.749143	0.934977	10.284749	0.096355
4083.739182	0.647085	131.054687	201.464844
4083.741184	0.918905	131.054687	201.464844
4083.743183	0.935748	131.054687	201.464844
4083.745183	0.933339	10.266731	0.124857
